%OpenBCI Raw EXG Data
%Number of channels = 8
%Sample Rate = 250 Hz
%Board = OpenBCI_GUI$BoardCytonSerial
Sample Index, EXG Channel 0, EXG Channel 1, EXG Channel 2, EXG Channel 3, EXG Channel 4, EXG Channel 5, EXG Channel 6, EXG Channel 7, Accel Channel 0, Accel Channel 1, Accel Channel 2, Not Used, Digital Channel 0 (D11), Digital Channel 1 (D12), Digital Channel 2 (D13), Digital Channel 3 (D17), Not Used, Digital Channel 4 (D18), Analog Channel 0, Analog Channel 1, Analog Channel 2, Timestamp, Marker Channel, Timestamp (Formatted)
222.0, -4223.272707852449, 3219.7017335536166, 14195.235275654231, 805.0651317912498, 13640.353219551233, -1705.9745438068562, 5921.6029550555895, 14227.421787669873, 0.0, 0.0, 0.0, 192.0, 0.0, 0.0, 0.0, 0.0, 0.0, 0.0, 0.0, 0.0, 0.0, 1.7721633137230132E9, 0.0, 2026-02-26 19:35:13.723
223.0, -4229.642955022211, 3219.3441056423317, 14192.418955852861, 799.9465823109845, 13636.732236949472, -1711.6518868985042, 5920.440664343913, 14224.918392290878, 0.0, 0.0, 0.0, 192.0, 0.0, 0.0, 0.0, 0.0, 0.0, 0.0, 0.0, 0.0, 0.0, 1.7721633137230704E9, 0.0, 2026-02-26 19:35:13.723
224.0, -4228.9724026885515, 3216.1925096741334, 14192.553066319593, 804.1934137574929, 13636.531071249376, -1707.1368345185322, 5921.3123823776705, 14225.05250275761, 0.0, 0.0, 0.0, 192.0, 0.0, 0.0, 0.0, 0.0, 0.0, 0.0, 0.0, 0.0, 0.0, 1.772163313723107E9, 0.0, 2026-02-26 19:35:13.723
0.0, 0.0, 0.0, 0.0, 0.0, 0.0, 0.0, 0.0, 0.0, 0.016, -0.022, 1.016, 192.0, 0.0, 128.0, 255.0, 80.0, 31.0, 192.0, 0.0, 0.0, 0.0, 1.7721633137793326E9, 0.0, 2026-02-26 19:35:13.779
1.0, 11927.78491113006, 3398.8286136184474, 13163.925786486363, 877.1495076596151, 12695.746147125501, -1600.3625512555304, 5694.643341856402, 13178.543827360134, 0.016, -0.022, 1.016, 192.0, 0.0, 0.0, 0.0, 0.0, 0.0, 0.0, 0.0, 0.0, 0.0, 1.772163313796375E9, 0.0, 2026-02-26 19:35:13.796
2.0, 11926.868489607394, 3351.509970606562, 13163.41169636389, 874.5343535583442, 12695.768498869957, -1602.664780934427, 5694.12925173393, 13177.60505409301, 0.016, -0.022, 1.016, 192.0, 0.0, 0.0, 0.0, 0.0, 0.0, 0.0, 0.0, 0.0, 0.0, 1.7721633138004005E9, 0.0, 2026-02-26 19:35:13.800
3.0, 11915.491451679642, 3128.976002809525, 13161.847074252019, 876.0319204368498, 12694.382690713728, -1604.1623478129325, 5694.084548245019, 13176.599225592521, 0.016, -0.022, 1.016, 192.0, 0.0, 0.0, 0.0, 0.0, 0.0, 0.0, 0.0, 0.0, 0.0, 1.7721633138034525E9, 0.0, 2026-02-26 19:35:13.803
4.0, 11920.654704648818, 3255.9339113156693, 13166.585644076544, 877.9541704600061, 12699.210667516074, -1602.3518565120528, 5693.659865100368, 13181.360147161502, 0.016, -0.022, 1.016, 192.0, 0.0, 0.0, 0.0, 0.0, 0.0, 0.0, 0.0, 0.0, 0.0, 1.7721633138064263E9, 0.0, 2026-02-26 19:35:13.806
5.0, 11925.348570984432, 3383.450613433196, 13168.08321095505, 877.0601006817939, 12699.992978572009, -1602.2624495342316, 5694.419824411849, 13182.701251828821, 0.016, -0.022, 1.016, 192.0, 0.0, 0.0, 0.0, 0.0, 0.0, 0.0, 0.0, 0.0, 0.0, 1.772163313810474E9, 0.0, 2026-02-26 19:35:13.810
6.0, 11921.995809316137, 3314.5401852774844, 13166.384478376447, 877.3283216152576, 12698.048376804398, -1601.5248419672064, 5694.8445075565, 13180.957815761307, 0.016, -0.022, 1.016, 192.0, 0.0, 0.0, 0.0, 0.0, 0.0, 0.0, 0.0, 0.0, 0.0, 1.772163313814463E9, 0.0, 2026-02-26 19:35:13.814
7.0, 11922.822823860983, 3287.718091931116, 13167.435010365845, 873.0814901687492, 12700.104737294287, -1605.8834321359911, 5693.682216844823, 13181.94129251734, 0.016, -0.022, 1.016, 192.0, 0.0, 0.0, 0.0, 0.0, 0.0, 0.0, 0.0, 0.0, 0.0, 1.7721633138194945E9, 0.0, 2026-02-26 19:35:13.819
8.0, 11923.023989561081, 3292.188440822177, 13168.731411544253, 868.3205685997688, 12701.736414639523, -1611.180795571899, 5693.190478466807, 13183.148286717927, 0.016, -0.02, 1.018, 192.0, 0.0, 128.0, 255.0, 96.0, 31.0, 208.0, 0.0, 0.0, 0.0, 1.772163313823516E9, 0.0, 2026-02-26 19:35:13.823
9.0, 11920.922925582281, 3290.7355774325824, 13168.150266188415, 872.1874203905369, 12701.110565794776, -1606.732798425293, 5693.302237189083, 13182.768307062186, 0.016, -0.02, 1.018, 192.0, 0.0, 0.0, 0.0, 0.0, 0.0, 0.0, 0.0, 0.0, 0.0, 1.7721633138265471E9, 0.0, 2026-02-26 19:35:13.826
10.0, 11915.022065046081, 3201.5744688003624, 13165.959795231796, 873.5732285467659, 12698.763632626968, -1605.1234728245108, 5692.69874008879, 13180.533132616656, 0.016, -0.02, 1.018, 192.0, 0.0, 0.0, 0.0, 0.0, 0.0, 0.0, 0.0, 0.0, 0.0, 1.772163313830648E9, 0.0, 2026-02-26 19:35:13.830
11.0, 11920.475890693175, 3331.035772685501, 13166.607995821, 868.9464174445174, 12699.277722749439, -1610.957278127346, 5691.424690654837, 13181.18133320586, 0.016, -0.02, 1.018, 192.0, 0.0, 0.0, 0.0, 0.0, 0.0, 0.0, 0.0, 0.0, 0.0, 1.7721633138346183E9, 0.0, 2026-02-26 19:35:13.834
12.0, 11922.666361649795, 3403.589535187428, 13166.630347565455, 871.5839232902435, 12699.277722749439, -1607.5151094812286, 5691.849373799489, 13181.5613128616, 0.016, -0.02, 1.018, 192.0, 0.0, 0.0, 0.0, 0.0, 0.0, 0.0, 0.0, 0.0, 0.0, 1.7721633138386407E9, 0.0, 2026-02-26 19:35:13.838
13.0, 11920.07355929298, 3388.4797559356402, 13165.289242898136, 874.9366849585397, 12698.137783782218, -1602.9330018678907, 5691.715263332756, 13179.99669074973, 0.016, -0.02, 1.018, 192.0, 0.0, 0.0, 0.0, 0.0, 0.0, 0.0, 0.0, 0.0, 0.0, 1.7721633138426936E9, 0.0, 2026-02-26 19:35:13.842
14.0, 11922.375788971876, 3410.764445157581, 13166.429181865356, 875.8307547367519, 12698.785984371423, -1602.7094844233377, 5692.251705199684, 13180.779001805664, 0.016, -0.02, 1.018, 192.0, 0.0, 0.0, 0.0, 0.0, 0.0, 0.0, 0.0, 0.0, 0.0, 1.7721633138466747E9, 0.0, 2026-02-26 19:35:13.846
15.0, 11922.845175605438, 3375.247523218098, 13166.675051054366, 874.4896500694335, 12698.875391349244, -1604.3411617685751, 5692.631684855424, 13181.114277972494, 0.016, -0.02, 1.018, 192.0, 0.0, 0.0, 0.0, 0.0, 0.0, 0.0, 0.0, 0.0, 0.0, 1.7721633138516672E9, 0.0, 2026-02-26 19:35:13.851
16.0, 11918.151309269824, 3317.7811882235037, 13164.976318475763, 873.0591384242939, 12697.13195528173, -1606.1740048139102, 5692.430519155326, 13179.773173305175, 0.016, -0.02, 1.018, 192.0, 0.0, 0.0, 0.0, 0.0, 0.0, 0.0, 0.0, 0.0, 0.0, 1.7721633138546996E9, 0.0, 2026-02-26 19:35:13.854
17.0, 11916.251410991123, 3335.193197154188, 13164.685745797844, 869.281693611347, 12696.908437837177, -1611.0466851051672, 5692.586981366513, 13179.437897138347, 0.016, -0.02, 1.018, 192.0, 0.0, 0.0, 0.0, 0.0, 0.0, 0.0, 0.0, 0.0, 0.0, 1.7721633138586867E9, 0.0, 2026-02-26 19:35:13.858
18.0, 11917.793681358538, 3377.0580145189783, 13165.646870809422, 870.3098738562911, 12698.22719076004, -1610.0632083491337, 5692.832850555522, 13180.13080121646, 0.02, -0.022, 1.012, 192.0, 0.0, 160.0, 255.0, 80.0, 31.0, 160.0, 0.0, 0.0, 0.0, 1.772163313862728E9, 0.0, 2026-02-26 19:35:13.862
19.0, 11917.637219147351, 3381.6177703878607, 13164.618690564477, 870.958074445495, 12697.243714004007, -1609.2585455487426, 5693.07871974453, 13179.214379693793, 0.02, -0.022, 1.012, 192.0, 0.0, 0.0, 0.0, 0.0, 0.0, 0.0, 0.0, 0.0, 0.0, 1.7721633138684826E9, 0.0, 2026-02-26 19:35:13.868
20.0, 11916.385521457854, 3351.71113630666, 13165.758629531698, 869.6169697781766, 12698.540115182414, -1610.465539749329, 5693.168126722351, 13180.443725638836, 0.02, -0.022, 1.012, 192.0, 0.0, 0.0, 0.0, 0.0, 0.0, 0.0, 0.0, 0.0, 0.0, 1.7721633138717875E9, 0.0, 2026-02-26 19:35:13.871
21.0, 11915.759672613105, 3387.4739274351514, 13166.049202209617, 867.538257543833, 12698.830687860333, -1611.9407548833794, 5692.922257533343, 13180.622539594477, 0.02, -0.022, 1.012, 192.0, 0.0, 0.0, 0.0, 0.0, 0.0, 0.0, 0.0, 0.0, 0.0, 1.772163313874796E9, 0.0, 2026-02-26 19:35:13.874
22.0, 11914.172698756778, 3399.990904330123, 13166.026850465161, 867.8064784772968, 12698.026025059942, -1611.6948856943711, 5693.3245889335385, 13180.399022149924, 0.02, -0.022, 1.012, 192.0, 0.0, 0.0, 0.0, 0.0, 0.0, 0.0, 0.0, 0.0, 0.0, 1.7721633138797612E9, 0.0, 2026-02-26 19:35:13.879
23.0, 11912.898649322826, 3367.9608545256683, 13166.27271965417, 868.0970511552157, 12698.003673315487, -1611.5160717387287, 5693.190478466807, 13180.5107808722, 0.02, -0.022, 1.012, 192.0, 0.0, 0.0, 0.0, 0.0, 0.0, 0.0, 0.0, 0.0, 0.0, 1.772163313882837E9, 0.0, 2026-02-26 19:35:13.882
24.0, 11910.171736499278, 3354.2592351745648, 13167.144437687926, 871.4945163124223, 12699.210667516074, -1607.045722847667, 5693.056368000075, 13181.628368094965, 0.02, -0.022, 1.012, 192.0, 0.0, 0.0, 0.0, 0.0, 0.0, 0.0, 0.0, 0.0, 0.0, 1.7721633138858228E9, 0.0, 2026-02-26 19:35:13.885
25.0, 11908.607114387407, 3400.1026630523997, 13167.390306876936, 871.4498128235117, 12700.261199505472, -1608.1409583259772, 5692.944609277798, 13182.008347750707, 0.02, -0.022, 1.012, 192.0, 0.0, 0.0, 0.0, 0.0, 0.0, 0.0, 0.0, 0.0, 0.0, 1.7721633138908188E9, 0.0, 2026-02-26 19:35:13.890
26.0, 11905.276704463568, 3382.511840166073, 13167.36795513248, 868.8793622111515, 12700.37295822775, -1611.2702025497201, 5692.989312766709, 13181.896589028429, 0.02, -0.022, 1.012, 192.0, 0.0, 0.0, 0.0, 0.0, 0.0, 0.0, 0.0, 0.0, 0.0, 1.7721633138948252E9, 0.0, 2026-02-26 19:35:13.894
27.0, 11903.488564907142, 3339.752953023071, 13168.150266188415, 869.862838967185, 12701.334083239328, -1610.018504860223, 5692.832850555522, 13182.857714040008, 0.02, -0.022, 1.012, 192.0, 0.0, 0.0, 0.0, 0.0, 0.0, 0.0, 0.0, 0.0, 0.0, 1.7721633138988705E9, 0.0, 2026-02-26 19:35:13.898
28.0, 11904.136765496347, 3386.713968123671, 13168.731411544253, 865.794821476319, 12702.138746039718, -1614.5112054957397, 5691.938780777309, 13183.528266373667, 0.018000000000000002, -0.016, 1.01, 192.0, 0.0, 144.0, 255.0, 128.0, 31.0, 144.0, 0.0, 0.0, 0.0, 1.772163313902923E9, 0.0, 2026-02-26 19:35:13.902
29.0, 11902.92977129576, 3416.620602204872, 13169.334908644547, 865.4148418205789, 12702.362263484272, -1615.181757829399, 5692.184649966318, 13184.198818707326, 0.018000000000000002, -0.016, 1.01, 192.0, 0.0, 0.0, 0.0, 0.0, 0.0, 0.0, 0.0, 0.0, 0.0, 1.7721633139069405E9, 0.0, 2026-02-26 19:35:13.906
30.0, 11900.985169528149, 3422.029724363056, 13170.296033656125, 862.7549842303973, 12702.764594884467, -1617.6180979750275, 5691.670559843846, 13184.556446618612, 0.018000000000000002, -0.016, 1.01, 192.0, 0.0, 0.0, 0.0, 0.0, 0.0, 0.0, 0.0, 0.0, 0.0, 1.7721633139109445E9, 0.0, 2026-02-26 19:35:13.910
31.0, 11900.3593206834, 3425.96363138719, 13171.03364122315, 867.1582778880928, 12703.681016407136, -1612.052513605656, 5691.782318566122, 13185.472868141278, 0.018000000000000002, -0.016, 1.01, 192.0, 0.0, 0.0, 0.0, 0.0, 0.0, 0.0, 0.0, 0.0, 0.0, 1.7721633139139633E9, 0.0, 2026-02-26 19:35:13.913
32.0, 11897.252428204112, 3421.5603377294947, 13169.312556900091, 870.1757633895593, 12701.781118128434, -1608.7444554262706, 5691.961132521765, 13183.863542540497, 0.018000000000000002, -0.016, 1.01, 192.0, 0.0, 0.0, 0.0, 0.0, 0.0, 0.0, 0.0, 0.0, 0.0, 1.7721633139179575E9, 0.0, 2026-02-26 19:35:13.917
33.0, 11895.956027025704, 3415.5253667265615, 13170.072516211572, 871.6733302680648, 12702.786946628923, -1606.1740048139102, 5691.827022055033, 13184.712908829799, 0.018000000000000002, -0.016, 1.01, 192.0, 0.0, 0.0, 0.0, 0.0, 0.0, 0.0, 0.0, 0.0, 0.0, 1.772163313923034E9, 0.0, 2026-02-26 19:35:13.923
34.0, 11896.40306191481, 3418.7663696725813, 13171.234806923248, 871.0027779344056, 12703.546905940404, -1606.5763362141058, 5691.4470423992925, 13185.718737330288, 0.018000000000000002, -0.016, 1.01, 192.0, 0.0, 0.0, 0.0, 0.0, 0.0, 0.0, 0.0, 0.0, 0.0, 1.772163313927136E9, 0.0, 2026-02-26 19:35:13.927
35.0, 11894.145535724823, 3420.7109714401927, 13169.021984222172, 870.5333913008442, 12701.55760068388, -1608.0739030926113, 5691.111766232463, 13183.483562884756, 0.018000000000000002, -0.016, 1.01, 192.0, 0.0, 0.0, 0.0, 0.0, 0.0, 0.0, 0.0, 0.0, 0.0, 1.7721633139310462E9, 0.0, 2026-02-26 19:35:13.931
36.0, 11894.234942702646, 3410.6526864353045, 13168.932577244352, 873.6849872690425, 12702.049339061898, -1604.6764379354047, 5691.469394143748, 13183.774135562675, 0.018000000000000002, -0.016, 1.01, 192.0, 0.0, 0.0, 0.0, 0.0, 0.0, 0.0, 0.0, 0.0, 0.0, 1.772163313935068E9, 0.0, 2026-02-26 19:35:13.935
37.0, 11890.435146145242, 3399.5438694410173, 13168.17261793287, 875.0707954252715, 12701.51289719497, -1603.4470919903627, 5692.296408688594, 13182.924769273373, 0.018000000000000002, -0.016, 1.01, 192.0, 0.0, 0.0, 0.0, 0.0, 0.0, 0.0, 0.0, 0.0, 0.0, 1.7721633139381757E9, 0.0, 2026-02-26 19:35:13.938
38.0, 11890.144573467323, 3389.6643983917716, 13169.066687711083, 874.5120018138888, 12702.22815301754, -1602.1953943008655, 5692.676388344335, 13183.237693695748, 0.02, -0.02, 1.016, 192.0, 0.0, 160.0, 255.0, 96.0, 31.0, 192.0, 0.0, 0.0, 0.0, 1.772163313942174E9, 0.0, 2026-02-26 19:35:13.942
39.0, 11893.184410713246, 3407.501090467106, 13170.631309822955, 875.473126825467, 12703.681016407136, -1601.3013245226532, 5692.2070017107735, 13185.003481507718, 0.02, -0.02, 1.016, 192.0, 0.0, 0.0, 0.0, 0.0, 0.0, 0.0, 0.0, 0.0, 0.0, 1.7721633139462569E9, 0.0, 2026-02-26 19:35:13.946
40.0, 11890.859829289893, 3396.2581630060868, 13167.211492921293, 874.2214291359699, 12700.060033805375, -1603.5588507126392, 5692.609333110969, 13181.449554139323, 0.02, -0.02, 1.016, 192.0, 0.0, 0.0, 0.0, 0.0, 0.0, 0.0, 0.0, 0.0, 0.0, 1.7721633139511125E9, 0.0, 2026-02-26 19:35:13.951
41.0, 11888.199971699712, 3410.2950585240196, 13164.663394053388, 870.7792604898525, 12697.601341915291, -1608.1186065815218, 5692.832850555522, 13178.968510504785, 0.02, -0.02, 1.016, 192.0, 0.0, 0.0, 0.0, 0.0, 0.0, 0.0, 0.0, 0.0, 0.0, 1.7721633139561796E9, 0.0, 2026-02-26 19:35:13.956
42.0, 11886.881218776849, 3377.52740115254, 13165.51276034269, 869.9522459450062, 12698.160135526674, -1609.4820629932956, 5692.609333110969, 13179.907283771907, 0.02, -0.02, 1.016, 192.0, 0.0, 0.0, 0.0, 0.0, 0.0, 0.0, 0.0, 0.0, 0.0, 1.772163313959166E9, 0.0, 2026-02-26 19:35:13.959
43.0, 11884.556637353497, 3306.6947229736716, 13166.339774887536, 869.8404872227296, 12698.674225649147, -1609.660876948938, 5692.966961022254, 13180.711946572299, 0.02, -0.02, 1.016, 192.0, 0.0, 0.0, 0.0, 0.0, 0.0, 0.0, 0.0, 0.0, 0.0, 1.7721633139632044E9, 0.0, 2026-02-26 19:35:13.963
44.0, 11887.574122854963, 3346.637290315305, 13167.546769088123, 871.4051093346011, 12699.836516360821, -1608.4315310038962, 5693.257533700173, 13182.03069949516, 0.02, -0.02, 1.016, 192.0, 0.0, 0.0, 0.0, 0.0, 0.0, 0.0, 0.0, 0.0, 0.0, 1.772163313966424E9, 0.0, 2026-02-26 19:35:13.966
45.0, 11889.96575951168, 3387.0492442905006, 13167.993803977228, 872.5226965573665, 12700.171792527652, -1607.8056821591476, 5693.123423233441, 13182.701251828821, 0.02, -0.02, 1.016, 192.0, 0.0, 0.0, 0.0, 0.0, 0.0, 0.0, 0.0, 0.0, 0.0, 1.772163313970284E9, 0.0, 2026-02-26 19:35:13.970
46.0, 11886.881218776849, 3367.5361713810175, 13166.406830120903, 872.9920831909279, 12698.540115182414, -1607.3362955255861, 5692.721091833245, 13180.913112272396, 0.02, -0.02, 1.016, 192.0, 0.0, 0.0, 0.0, 0.0, 0.0, 0.0, 0.0, 0.0, 0.0, 1.7721633139743025E9, 0.0, 2026-02-26 19:35:13.974
47.0, 11883.72962280865, 3309.7569119640484, 13165.758629531698, 875.0707954252715, 12698.316597737861, -1604.564679213128, 5693.212830211262, 13180.063745983094, 0.02, -0.02, 1.016, 192.0, 0.0, 0.0, 0.0, 0.0, 0.0, 0.0, 0.0, 0.0, 0.0, 1.7721633139782863E9, 0.0, 2026-02-26 19:35:13.978
48.0, 11887.149439710312, 3329.9852406961013, 13167.278548154658, 875.7860512478413, 12700.484716950026, -1604.050589090656, 5693.436347655815, 13181.673071583877, 0.02, -0.016, 1.012, 192.0, 0.0, 160.0, 255.0, 128.0, 31.0, 160.0, 0.0, 0.0, 0.0, 1.7721633139832845E9, 0.0, 2026-02-26 19:35:13.983
49.0, 11883.774326297562, 3247.26143446701, 13167.949100488318, 879.0494059383161, 12701.51289719497, -1600.9213448669132, 5693.637513355913, 13182.790658806642, 0.02, -0.016, 1.012, 192.0, 0.0, 0.0, 0.0, 0.0, 0.0, 0.0, 0.0, 0.0, 0.0, 1.7721633139872897E9, 0.0, 2026-02-26 19:35:13.987
50.0, 11886.478887376654, 3362.1046974783776, 13169.22314992227, 878.8705919826737, 12702.339911739817, -1601.3013245226532, 5693.45869940027, 13183.617673351488, 0.02, -0.016, 1.012, 192.0, 0.0, 0.0, 0.0, 0.0, 0.0, 0.0, 0.0, 0.0, 0.0, 1.7721633139913232E9, 0.0, 2026-02-26 19:35:13.991
51.0, 11886.724756565662, 3379.6508168757937, 13168.127914443961, 878.2894466268357, 12700.887048350221, -1601.5918972005722, 5694.509231389669, 13182.23186519526, 0.02, -0.016, 1.012, 192.0, 0.0, 0.0, 0.0, 0.0, 0.0, 0.0, 0.0, 0.0, 0.0, 1.7721633139943244E9, 0.0, 2026-02-26 19:35:13.994
52.0, 11889.228151944657, 3394.6264856608495, 13168.485542355245, 879.0717576827715, 12701.021158816953, -1600.474309977807, 5694.553934878581, 13182.65654833991, 0.02, -0.016, 1.012, 192.0, 0.0, 0.0, 0.0, 0.0, 0.0, 0.0, 0.0, 0.0, 0.0, 1.7721633139984968E9, 0.0, 2026-02-26 19:35:13.998
53.0, 11891.038643245536, 3410.3621137573855, 13168.619652821977, 879.7870135053413, 12701.13291753923, -1600.1390338109773, 5694.241010456206, 13183.03652799565, 0.02, -0.016, 1.012, 192.0, 0.0, 0.0, 0.0, 0.0, 0.0, 0.0, 0.0, 0.0, 0.0, 1.7721633140023603E9, 0.0, 2026-02-26 19:35:14.002
54.0, 11889.921056022771, 3398.158061284788, 13169.17844643336, 880.7257867724642, 12702.071690806353, -1598.88733612148, 5694.419824411849, 13183.79648730713, 0.02, -0.016, 1.012, 192.0, 0.0, 0.0, 0.0, 0.0, 0.0, 0.0, 0.0, 0.0, 0.0, 1.7721633140064213E9, 0.0, 2026-02-26 19:35:14.006
55.0, 11889.563428111485, 3393.777119371548, 13169.737240044742, 878.311798371291, 12702.675187906647, -1601.3013245226532, 5693.905734289377, 13184.265873940692, 0.02, -0.016, 1.012, 192.0, 0.0, 0.0, 0.0, 0.0, 0.0, 0.0, 0.0, 0.0, 0.0, 1.7721633140104039E9, 0.0, 2026-02-26 19:35:14.010
56.0, 11889.943407767227, 3385.417566945263, 13169.446667366823, 877.6188942931765, 12702.18344952863, -1601.7036559228488, 5693.704568589279, 13183.818839051586, 0.02, -0.016, 1.012, 192.0, 0.0, 0.0, 0.0, 0.0, 0.0, 0.0, 0.0, 0.0, 0.0, 1.772163314015427E9, 0.0, 2026-02-26 19:35:14.015
57.0, 11890.099869978414, 3404.7518258991036, 13167.837341766042, 879.4964408274222, 12700.551772183391, -1599.5578884551394, 5694.2633622006615, 13182.410679150902, 0.02, -0.016, 1.012, 192.0, 0.0, 0.0, 0.0, 0.0, 0.0, 0.0, 0.0, 0.0, 0.0, 1.7721633140184398E9, 0.0, 2026-02-26 19:35:14.018
58.0, 11887.529419366052, 3378.197953486199, 13166.764458032187, 877.9094669710955, 12699.724757638545, -1601.1895658003768, 5694.12925173393, 13181.449554139323, 0.02, -0.016, 1.012, 192.0, 0.0, 0.0, 0.0, 0.0, 0.0, 0.0, 0.0, 0.0, 0.0, 1.7721633140224607E9, 0.0, 2026-02-26 19:35:14.022
59.0, 11885.96479725418, 3345.609110070361, 13166.205664420804, 877.4177285930788, 12699.300074493894, -1601.0554553336449, 5694.12925173393, 13180.756650061208, 0.018000000000000002, -0.024, 1.018, 192.0, 0.0, 144.0, 255.0, 64.0, 31.0, 208.0, 0.0, 0.0, 0.0, 1.7721633140265183E9, 0.0, 2026-02-26 19:35:14.026
60.0, 11890.479849634154, 3397.6886746512264, 13167.837341766042, 874.8919814696291, 12700.954103583588, -1604.251754790754, 5693.682216844823, 13182.32127217308, 0.018000000000000002, -0.024, 1.018, 192.0, 0.0, 0.0, 0.0, 0.0, 0.0, 0.0, 0.0, 0.0, 0.0, 1.7721633140305216E9, 0.0, 2026-02-26 19:35:14.030
61.0, 11892.335044423944, 3396.548735684006, 13168.17261793287, 876.7695280038748, 12700.887048350221, -1601.2566210337427, 5693.592809867002, 13182.56714136209, 0.018000000000000002, -0.024, 1.018, 192.0, 0.0, 0.0, 0.0, 0.0, 0.0, 0.0, 0.0, 0.0, 0.0, 1.77216331403458E9, 0.0, 2026-02-26 19:35:14.034
62.0, 11889.764593811584, 3389.619694902861, 13166.138609187437, 873.1708971465704, 12698.920094838155, -1604.69878967986, 5693.905734289377, 13180.42137389438, 0.018000000000000002, -0.024, 1.018, 192.0, 0.0, 0.0, 0.0, 0.0, 0.0, 0.0, 0.0, 0.0, 0.0, 1.7721633140386276E9, 0.0, 2026-02-26 19:35:14.038
63.0, 11887.819992043971, 3378.779098842037, 13164.685745797844, 871.9639029459838, 12697.17665877064, -1606.3528187695526, 5694.084548245019, 13178.499123871223, 0.018000000000000002, -0.024, 1.018, 192.0, 0.0, 0.0, 0.0, 0.0, 0.0, 0.0, 0.0, 0.0, 0.0, 1.7721633140446408E9, 0.0, 2026-02-26 19:35:14.044
64.0, 11888.73641356664, 3383.7858896000257, 13164.953966731307, 875.2272576364586, 12697.333120981828, -1603.1565193124438, 5693.07871974453, 13179.08026922706, 0.018000000000000002, -0.024, 1.018, 192.0, 0.0, 0.0, 0.0, 0.0, 0.0, 0.0, 0.0, 0.0, 0.0, 1.772163314047594E9, 0.0, 2026-02-26 19:35:14.047
65.0, 11888.267026933077, 3354.7286218081263, 13163.076420197061, 873.3273593577576, 12695.522629680949, -1606.375170514008, 5692.274056944139, 13177.269777926182, 0.018000000000000002, -0.024, 1.018, 192.0, 0.0, 0.0, 0.0, 0.0, 0.0, 0.0, 0.0, 0.0, 0.0, 1.7721633140505853E9, 0.0, 2026-02-26 19:35:14.050
66.0, 11886.657701332297, 3360.875351533336, 13162.137646929938, 871.6733302680648, 12694.248580246995, -1608.3197722816196, 5692.072891244041, 13176.219245936782, 0.018000000000000002, -0.024, 1.018, 192.0, 0.0, 0.0, 0.0, 0.0, 0.0, 0.0, 0.0, 0.0, 0.0, 1.7721633140536215E9, 0.0, 2026-02-26 19:35:14.053
67.0, 11887.39530889932, 3357.90256952078, 13163.814027764087, 873.796745991319, 12696.215533759063, -1605.570507713617, 5691.9164290328545, 13177.783868048653, 0.018000000000000002, -0.024, 1.018, 192.0, 0.0, 0.0, 0.0, 0.0, 0.0, 0.0, 0.0, 0.0, 0.0, 1.7721633140586529E9, 0.0, 2026-02-26 19:35:14.058
68.0, 11891.64214034583, 3385.641084389816, 13166.205664420804, 875.8754582256626, 12698.8977430937, -1602.8435948900694, 5691.201173210285, 13180.354318661013, 0.018000000000000002, -0.024, 1.018, 192.0, 0.0, 0.0, 0.0, 0.0, 0.0, 0.0, 0.0, 0.0, 0.0, 1.772163314062666E9, 0.0, 2026-02-26 19:35:14.062
69.0, 11889.183448455746, 3325.6937057606824, 13163.724620786264, 877.1718594040703, 12696.32729248134, -1601.5918972005722, 5691.044710999097, 13177.94033025984, 0.016, -0.028, 1.016, 192.0, 0.0, 128.0, 255.0, 32.0, 31.0, 192.0, 0.0, 0.0, 0.0, 1.7721633140666733E9, 0.0, 2026-02-26 19:35:14.066
70.0, 11889.652835089308, 3312.483824787596, 13164.484580097745, 877.440080337534, 12697.489583193015, -1601.4577867338405, 5691.4470423992925, 13179.169676204881, 0.016, -0.028, 1.016, 192.0, 0.0, 0.0, 0.0, 0.0, 0.0, 0.0, 0.0, 0.0, 0.0, 1.772163314070691E9, 0.0, 2026-02-26 19:35:14.070
71.0, 11891.597436856919, 3356.382650897819, 13166.362126631991, 874.3108361137911, 12699.65770240518, -1605.1681763134213, 5691.290580188105, 13181.091926228039, 0.016, -0.028, 1.016, 192.0, 0.0, 0.0, 0.0, 0.0, 0.0, 0.0, 0.0, 0.0, 0.0, 1.7721633140747244E9, 0.0, 2026-02-26 19:35:14.074
72.0, 11892.603265357408, 3381.438956432218, 13166.920920243374, 871.896847712618, 12699.590647171814, -1608.4538827483516, 5691.290580188105, 13181.069574483583, 0.016, -0.028, 1.016, 192.0, 0.0, 0.0, 0.0, 0.0, 0.0, 0.0, 0.0, 0.0, 0.0, 1.7721633140777445E9, 0.0, 2026-02-26 19:35:14.077
73.0, 11890.189276956235, 3351.286453162009, 13164.708097542298, 873.215600635481, 12697.310769237372, -1606.4198740029185, 5691.60350461048, 13178.812048293597, 0.016, -0.028, 1.016, 192.0, 0.0, 0.0, 0.0, 0.0, 0.0, 0.0, 0.0, 0.0, 0.0, 1.772163314081809E9, 0.0, 2026-02-26 19:35:14.081
74.0, 11889.25050368911, 3368.2514272035874, 13162.450571352312, 872.1650686460816, 12695.187353514119, -1607.2915920366756, 5691.4470423992925, 13176.733336059253, 0.016, -0.028, 1.016, 192.0, 0.0, 0.0, 0.0, 0.0, 0.0, 0.0, 0.0, 0.0, 0.0, 1.7721633140868464E9, 0.0, 2026-02-26 19:35:14.086
75.0, 11887.082384476947, 3309.4439875416742, 13164.328117886558, 869.281693611347, 12697.020196559453, -1610.9125746384352, 5691.759966821667, 13178.610882593499, 0.016, -0.028, 1.016, 192.0, 0.0, 0.0, 0.0, 0.0, 0.0, 0.0, 0.0, 0.0, 0.0, 1.7721633140908146E9, 0.0, 2026-02-26 19:35:14.090
76.0, 11888.959931011192, 3362.551732367484, 13164.864559753485, 867.1135743991822, 12697.444879704104, -1613.6394874619828, 5691.1564697213735, 13178.968510504785, 0.016, -0.028, 1.016, 192.0, 0.0, 0.0, 0.0, 0.0, 0.0, 0.0, 0.0, 0.0, 0.0, 1.7721633140948236E9, 0.0, 2026-02-26 19:35:14.094
77.0, 11888.3564339109, 3346.927862993224, 13164.12695218646, 867.3817953326459, 12696.908437837177, -1612.4324932613963, 5690.664731343357, 13178.23090293776, 0.016, -0.028, 1.016, 192.0, 0.0, 0.0, 0.0, 0.0, 0.0, 0.0, 0.0, 0.0, 0.0, 1.7721633140988376E9, 0.0, 2026-02-26 19:35:14.098
78.0, 11889.630483344852, 3378.1085465083775, 13163.568158575077, 870.3322256007464, 12696.439051203615, -1608.2974205371645, 5690.485917387715, 13177.761516304197, 0.016, -0.028, 1.016, 192.0, 0.0, 0.0, 0.0, 0.0, 0.0, 0.0, 0.0, 0.0, 0.0, 1.7721633141019025E9, 0.0, 2026-02-26 19:35:14.101
79.0, 11889.585779855941, 3396.325218239453, 13164.641042308933, 871.6733302680648, 12697.51193493747, -1607.5151094812286, 5690.709434832267, 13178.834400038053, 0.016, -0.018000000000000002, 1.012, 192.0, 0.0, 128.0, 255.0, 112.0, 31.0, 160.0, 0.0, 0.0, 0.0, 1.772163314105986E9, 0.0, 2026-02-26 19:35:14.105
80.0, 11890.479849634154, 3399.901497352302, 13165.155132431404, 871.2039436345034, 12698.60717041578, -1608.7444554262706, 5690.910600532366, 13179.482600627256, 0.016, -0.018000000000000002, 1.012, 192.0, 0.0, 0.0, 0.0, 0.0, 0.0, 0.0, 0.0, 0.0, 0.0, 1.772163314109948E9, 0.0, 2026-02-26 19:35:14.109
81.0, 11886.478887376654, 3332.3992290972747, 13163.858731252996, 870.5110395563888, 12696.930789581633, -1609.9738013713124, 5690.485917387715, 13178.119144215483, 0.016, -0.018000000000000002, 1.012, 192.0, 0.0, 0.0, 0.0, 0.0, 0.0, 0.0, 0.0, 0.0, 0.0, 1.77216331411459E9, 0.0, 2026-02-26 19:35:14.114
82.0, 11887.372957154867, 3391.7878141150254, 13162.964661474785, 867.7394232439308, 12695.70144363659, -1613.058342106145, 5690.731786576723, 13177.18037094836, 0.016, -0.018000000000000002, 1.012, 192.0, 0.0, 0.0, 0.0, 0.0, 0.0, 0.0, 0.0, 0.0, 0.0, 1.7721633141189249E9, 0.0, 2026-02-26 19:35:14.118
83.0, 11886.68005307675, 3398.9180205962684, 13163.143475430426, 863.1573156305928, 12695.969664570053, -1618.1321880974995, 5691.335283677016, 13177.448591881823, 0.016, -0.018000000000000002, 1.012, 192.0, 0.0, 0.0, 0.0, 0.0, 0.0, 0.0, 0.0, 0.0, 0.0, 1.772163314122932E9, 0.0, 2026-02-26 19:35:14.122
84.0, 11886.30007342101, 3414.5418899705282, 13163.36699287498, 859.8269057067521, 12696.237885503519, -1621.5967084880722, 5691.424690654837, 13177.649757581921, 0.016, -0.018000000000000002, 1.012, 192.0, 0.0, 0.0, 0.0, 0.0, 0.0, 0.0, 0.0, 0.0, 0.0, 1.772163314126982E9, 0.0, 2026-02-26 19:35:14.126
85.0, 11885.048375731514, 3420.129826084355, 13162.450571352312, 858.0611178947828, 12694.852077347288, -1624.435380033896, 5690.620027854447, 13176.487466870245, 0.016, -0.018000000000000002, 1.012, 192.0, 0.0, 0.0, 0.0, 0.0, 0.0, 0.0, 0.0, 0.0, 0.0, 1.7721633141300025E9, 0.0, 2026-02-26 19:35:14.130
86.0, 11884.646044331319, 3416.665305693782, 13160.595376562522, 857.055289394294, 12692.639254646214, -1626.089409123589, 5690.552972621081, 13174.721679058275, 0.016, -0.018000000000000002, 1.012, 192.0, 0.0, 0.0, 0.0, 0.0, 0.0, 0.0, 0.0, 0.0, 0.0, 1.7721633141346612E9, 0.0, 2026-02-26 19:35:14.134
87.0, 11881.53915185203, 3375.2028197291875, 13161.109466684995, 857.1446963721153, 12693.421565702149, -1625.888243423491, 5690.709434832267, 13175.481638369756, 0.016, -0.018000000000000002, 1.012, 192.0, 0.0, 0.0, 0.0, 0.0, 0.0, 0.0, 0.0, 0.0, 0.0, 1.7721633141380193E9, 0.0, 2026-02-26 19:35:14.138
88.0, 11882.477925119154, 3380.164906998266, 13163.83637950854, 858.9328359285398, 12695.924961081144, -1622.982516644301, 5689.949475520787, 13178.096792471028, 0.016, -0.018000000000000002, 1.012, 192.0, 0.0, 0.0, 0.0, 0.0, 0.0, 0.0, 0.0, 0.0, 0.0, 1.7721633141420336E9, 0.0, 2026-02-26 19:35:14.142
89.0, 11883.103773963901, 3409.9374306127347, 13163.36699287498, 855.9377021715287, 12695.41087095867, -1626.8046649461587, 5690.284751687616, 13177.113315714994, 0.014, -0.018000000000000002, 1.02, 192.0, 0.0, 112.0, 255.0, 112.0, 31.0, 224.0, 0.0, 0.0, 0.0, 1.7721633141470833E9, 0.0, 2026-02-26 19:35:14.147
90.0, 11882.813201285982, 3412.8208056474696, 13161.623556807466, 851.3555945581907, 12693.958007569076, -1633.0855051381, 5689.748309820689, 13175.325176158569, 0.014, -0.018000000000000002, 1.02, 192.0, 0.0, 0.0, 0.0, 0.0, 0.0, 0.0, 0.0, 0.0, 0.0, 1.7721633141510825E9, 0.0, 2026-02-26 19:35:14.151
91.0, 11883.72962280865, 3405.4447299772182, 13162.875254496963, 849.992138146417, 12695.254408747483, -1635.3206795836306, 5689.256571442673, 13176.88979827044, 0.014, -0.018000000000000002, 1.02, 192.0, 0.0, 0.0, 0.0, 0.0, 0.0, 0.0, 0.0, 0.0, 0.0, 1.7721633141551163E9, 0.0, 2026-02-26 19:35:14.155
92.0, 11882.075593718959, 3404.841232876925, 13163.12112368597, 852.2720160808583, 12695.097946536298, -1632.7725807157256, 5690.083585987519, 13176.979205248263, 0.014, -0.018000000000000002, 1.02, 192.0, 0.0, 0.0, 0.0, 0.0, 0.0, 0.0, 0.0, 0.0, 0.0, 1.772163314158115E9, 0.0, 2026-02-26 19:35:14.158
93.0, 11879.102811706402, 3412.8431573919247, 13159.947175973319, 851.959091658484, 12691.745184868001, -1633.2643190937424, 5690.441213898804, 13173.626443579966, 0.014, -0.018000000000000002, 1.02, 192.0, 0.0, 0.0, 0.0, 0.0, 0.0, 0.0, 0.0, 0.0, 0.0, 1.772163314162178E9, 0.0, 2026-02-26 19:35:14.162
94.0, 11881.025061729559, 3403.7459973986147, 13160.058934695595, 848.5839782457326, 12692.32633022384, -1637.5782057736167, 5689.994179009697, 13173.738202302242, 0.014, -0.018000000000000002, 1.02, 192.0, 0.0, 0.0, 0.0, 0.0, 0.0, 0.0, 0.0, 0.0, 0.0, 1.7721633141662955E9, 0.0, 2026-02-26 19:35:14.166
95.0, 11879.68395706224, 3391.161965270277, 13158.896643983919, 846.5276177558444, 12691.544019167903, -1640.2604151082535, 5689.45773714277, 13172.620615079477, 0.014, -0.018000000000000002, 1.02, 192.0, 0.0, 0.0, 0.0, 0.0, 0.0, 0.0, 0.0, 0.0, 0.0, 1.7721633141701808E9, 0.0, 2026-02-26 19:35:14.170
96.0, 11881.628558829852, 3408.2834015230424, 13160.684783540342, 846.3041003112913, 12693.399213957693, -1641.4450575643848, 5689.7930133096, 13174.364051146991, 0.014, -0.018000000000000002, 1.02, 192.0, 0.0, 0.0, 0.0, 0.0, 0.0, 0.0, 0.0, 0.0, 0.0, 1.772163314174202E9, 0.0, 2026-02-26 19:35:14.174
97.0, 11880.130991951346, 3400.549697941506, 13160.260100395692, 844.6500712215986, 12692.505144179482, -1642.6520517649712, 5689.837716798511, 13173.581740091055, 0.014, -0.018000000000000002, 1.02, 192.0, 0.0, 0.0, 0.0, 0.0, 0.0, 0.0, 0.0, 0.0, 0.0, 1.7721633141782997E9, 0.0, 2026-02-26 19:35:14.178
98.0, 11876.711175049684, 3305.554784006451, 13159.74601027322, 845.8123619332746, 12692.281626734928, -1640.6403947639938, 5689.5694958650465, 13173.045298224128, 0.014, -0.018000000000000002, 1.02, 192.0, 0.0, 0.0, 0.0, 0.0, 0.0, 0.0, 0.0, 0.0, 0.0, 1.772163314183304E9, 0.0, 2026-02-26 19:35:14.183
99.0, 11872.464343603177, 3230.6987918256277, 13158.98605096174, 844.7618299438751, 12692.058109290376, -1642.8755692095244, 5689.614199353958, 13172.352394146013, 0.012, -0.016, 1.01, 192.0, 0.0, 96.0, 255.0, 128.0, 31.0, 144.0, 0.0, 0.0, 0.0, 1.7721633141862943E9, 0.0, 2026-02-26 19:35:14.186
100.0, 11872.889026747827, 3318.742313235082, 13159.008402706195, 846.4158590335678, 12692.505144179482, -1641.3332988421082, 5689.837716798511, 13172.553559846112, 0.012, -0.016, 1.01, 192.0, 0.0, 0.0, 0.0, 0.0, 0.0, 0.0, 0.0, 0.0, 0.0, 1.772163314190287E9, 0.0, 2026-02-26 19:35:14.190
101.0, 11876.510009349586, 3390.7372821256263, 13161.400039362912, 849.4333445350343, 12695.097946536298, -1637.175874373421, 5690.2176964542505, 13174.94519650283, 0.012, -0.016, 1.01, 192.0, 0.0, 0.0, 0.0, 0.0, 0.0, 0.0, 0.0, 0.0, 0.0, 1.7721633141942885E9, 0.0, 2026-02-26 19:35:14.194
102.0, 11880.130991951346, 3411.747921913615, 13162.741144030231, 851.4673532804673, 12696.640216903714, -1634.0689818941335, 5689.949475520787, 13176.308652914602, 0.012, -0.016, 1.01, 192.0, 0.0, 0.0, 0.0, 0.0, 0.0, 0.0, 0.0, 0.0, 0.0, 1.7721633141983345E9, 0.0, 2026-02-26 19:35:14.198
103.0, 11881.248579174111, 3417.0452853495226, 13162.137646929938, 854.7530597153974, 12696.349644225795, -1629.1963016028765, 5690.351806920982, 13175.816914536586, 0.012, -0.016, 1.01, 192.0, 0.0, 0.0, 0.0, 0.0, 0.0, 0.0, 0.0, 0.0, 0.0, 1.772163314202341E9, 0.0, 2026-02-26 19:35:14.202
104.0, 11880.198047184713, 3417.738189427637, 13163.210530663793, 856.6976614830091, 12697.713100637568, -1627.408162046452, 5690.93295227682, 13176.867446525985, 0.012, -0.016, 1.01, 192.0, 0.0, 0.0, 0.0, 0.0, 0.0, 0.0, 0.0, 0.0, 0.0, 1.7721633142073393E9, 0.0, 2026-02-26 19:35:14.207
105.0, 11874.58775932643, 3367.133839980822, 13161.80237076311, 855.2671498378694, 12696.03671980342, -1628.6822114804045, 5690.396510409893, 13175.36987964748, 0.012, -0.016, 1.01, 192.0, 0.0, 0.0, 0.0, 0.0, 0.0, 0.0, 0.0, 0.0, 0.0, 1.7721633142114253E9, 0.0, 2026-02-26 19:35:14.211
106.0, 11872.889026747827, 3341.1834646682105, 13161.5565015741, 857.7705452168639, 12695.969664570053, -1625.1953393453766, 5690.396510409893, 13175.28047266966, 0.012, -0.016, 1.01, 192.0, 0.0, 0.0, 0.0, 0.0, 0.0, 0.0, 0.0, 0.0, 0.0, 1.7721633142144065E9, 0.0, 2026-02-26 19:35:14.214
107.0, 11874.58775932643, 3361.7470695670927, 13162.249405652216, 860.2739405958582, 12697.266065748461, -1622.7813509442033, 5690.575324365535, 13176.219245936782, 0.012, -0.016, 1.01, 192.0, 0.0, 0.0, 0.0, 0.0, 0.0, 0.0, 0.0, 0.0, 0.0, 1.7721633142174127E9, 0.0, 2026-02-26 19:35:14.217
108.0, 11871.167942424769, 3318.7199614906267, 13163.299937641614, 860.7209754849644, 12698.428356460137, -1621.3955427879744, 5690.575324365535, 13177.381536648458, 0.012, -0.016, 1.01, 192.0, 0.0, 0.0, 0.0, 0.0, 0.0, 0.0, 0.0, 0.0, 0.0, 1.772163314222432E9, 0.0, 2026-02-26 19:35:14.222
109.0, 11873.224302914656, 3383.517668666562, 13164.708097542298, 859.2234086064587, 12699.724757638545, -1622.8037026886586, 5689.860068542966, 13178.588530849043, 0.012, -0.02, 1.014, 192.0, 0.0, 96.0, 255.0, 96.0, 31.0, 176.0, 0.0, 0.0, 0.0, 1.7721633142265272E9, 0.0, 2026-02-26 19:35:14.226
110.0, 11873.246654659111, 3389.5302879250394, 13163.903434741907, 859.3351673287353, 12699.009501815975, -1622.244909077276, 5690.262399943162, 13177.828571537564, 0.012, -0.02, 1.014, 192.0, 0.0, 0.0, 0.0, 0.0, 0.0, 0.0, 0.0, 0.0, 0.0, 1.7721633142304833E9, 0.0, 2026-02-26 19:35:14.230
111.0, 11874.565407581975, 3410.071541079467, 13163.41169636389, 857.1446963721153, 12698.450708204593, -1623.7871794446921, 5689.055405742575, 13177.22507443727, 0.012, -0.02, 1.014, 192.0, 0.0, 0.0, 0.0, 0.0, 0.0, 0.0, 0.0, 0.0, 0.0, 1.772163314234504E9, 0.0, 2026-02-26 19:35:14.234
112.0, 11873.224302914656, 3418.922831883768, 13163.456399852801, 856.2282748494476, 12698.584818671325, -1624.4577317783514, 5688.518963875647, 13177.314481415091, 0.012, -0.02, 1.014, 192.0, 0.0, 0.0, 0.0, 0.0, 0.0, 0.0, 0.0, 0.0, 0.0, 1.7721633142395346E9, 0.0, 2026-02-26 19:35:14.239
113.0, 11871.503218591597, 3372.1853342277213, 13164.641042308933, 856.4741440384561, 12699.32242623835, -1624.3683248005302, 5688.809536553566, 13178.23090293776, 0.012, -0.02, 1.014, 192.0, 0.0, 0.0, 0.0, 0.0, 0.0, 0.0, 0.0, 0.0, 0.0, 1.7721633142425363E9, 0.0, 2026-02-26 19:35:14.242
114.0, 11868.463381345677, 3297.552859491451, 13165.289242898136, 857.7034899834979, 12699.9482750831, -1622.9601648998457, 5688.876591786932, 13178.856751782509, 0.012, -0.02, 1.014, 192.0, 0.0, 0.0, 0.0, 0.0, 0.0, 0.0, 0.0, 0.0, 0.0, 1.7721633142455919E9, 0.0, 2026-02-26 19:35:14.245
115.0, 11874.2524831596, 3394.8500031054027, 13166.026850465161, 856.9211789275622, 12700.887048350221, -1623.4295515334072, 5688.541315620103, 13179.683766327355, 0.012, -0.02, 1.014, 192.0, 0.0, 0.0, 0.0, 0.0, 0.0, 0.0, 0.0, 0.0, 0.0, 1.7721633142505853E9, 0.0, 2026-02-26 19:35:14.250
116.0, 11871.3020528915, 3381.8189360879587, 13164.864559753485, 861.637397007632, 12699.992978572009, -1618.1768915864102, 5688.653074342379, 13178.834400038053, 0.012, -0.02, 1.014, 192.0, 0.0, 0.0, 0.0, 0.0, 0.0, 0.0, 0.0, 0.0, 0.0, 1.7721633142545807E9, 0.0, 2026-02-26 19:35:14.254
117.0, 11866.854055744894, 3325.51489180504, 13164.439876608834, 862.375004574657, 12699.858868105277, -1617.4169322749296, 5688.876591786932, 13178.432068637858, 0.012, -0.02, 1.014, 192.0, 0.0, 0.0, 0.0, 0.0, 0.0, 0.0, 0.0, 0.0, 0.0, 1.7721633142586665E9, 0.0, 2026-02-26 19:35:14.258
118.0, 11871.413811613776, 3380.81310758747, 13166.719754543275, 865.7054144984978, 12702.250504761996, -1614.1759293289101, 5688.787184809111, 13180.84605703903, 0.012, -0.02, 1.014, 192.0, 0.0, 0.0, 0.0, 0.0, 0.0, 0.0, 0.0, 0.0, 0.0, 1.772163314262734E9, 0.0, 2026-02-26 19:35:14.262
119.0, 11869.02217495706, 3290.1544320767443, 13166.205664420804, 865.0125104203834, 12701.691711150612, -1614.7794264292033, 5688.094280730997, 13180.220208194281, 0.014, -0.024, 1.016, 192.0, 0.0, 112.0, 255.0, 64.0, 31.0, 192.0, 0.0, 0.0, 0.0, 1.772163314266679E9, 0.0, 2026-02-26 19:35:14.266
120.0, 11866.742297022618, 3290.0203216100126, 13165.065725453584, 862.1291353856487, 12700.574123927847, -1617.1710630859213, 5687.624894097436, 13178.94615876033, 0.014, -0.024, 1.016, 192.0, 0.0, 0.0, 0.0, 0.0, 0.0, 0.0, 0.0, 0.0, 0.0, 1.77216331426967E9, 0.0, 2026-02-26 19:35:14.269
121.0, 11867.301090634, 3310.0474846419675, 13167.32325164357, 861.0786033962493, 12702.51872569546, -1618.5121677532397, 5688.295446431094, 13181.002519250218, 0.014, -0.024, 1.016, 192.0, 0.0, 0.0, 0.0, 0.0, 0.0, 0.0, 0.0, 0.0, 0.0, 1.7721633142737322E9, 0.0, 2026-02-26 19:35:14.273
122.0, 11873.336061636934, 3415.123035326366, 13168.954928988807, 861.7491557299085, 12703.971589085055, -1618.2662985642314, 5688.809536553566, 13182.522437873178, 0.014, -0.024, 1.016, 192.0, 0.0, 0.0, 0.0, 0.0, 0.0, 0.0, 0.0, 0.0, 0.0, 1.7721633142787452E9, 0.0, 2026-02-26 19:35:14.278
123.0, 11877.404079127798, 3419.3475150284194, 13169.714888300286, 862.21854236347, 12704.597437929802, -1617.4616357638404, 5688.586019109013, 13183.260045440204, 0.014, -0.024, 1.016, 192.0, 0.0, 0.0, 0.0, 0.0, 0.0, 0.0, 0.0, 0.0, 0.0, 1.7721633142829955E9, 0.0, 2026-02-26 19:35:14.282
124.0, 11875.504180849097, 3413.96074461469, 13166.876216754463, 862.4867632969336, 12701.669359406158, -1617.4169322749296, 5689.256571442673, 13180.577836105567, 0.014, -0.024, 1.016, 192.0, 0.0, 0.0, 0.0, 0.0, 0.0, 0.0, 0.0, 0.0, 0.0, 1.772163314287026E9, 0.0, 2026-02-26 19:35:14.287
125.0, 11870.96677672467, 3359.221322443643, 13165.713926042787, 861.5479900298108, 12700.551772183391, -1619.0709613646225, 5689.03305399812, 13179.393193649435, 0.014, -0.024, 1.016, 192.0, 0.0, 0.0, 0.0, 0.0, 0.0, 0.0, 0.0, 0.0, 0.0, 1.7721633142907748E9, 0.0, 2026-02-26 19:35:14.290
126.0, 11871.59262556942, 3330.2087581406545, 13165.624519064966, 859.6704434955649, 12700.66353090567, -1621.149673598966, 5688.384853408916, 13179.147324460428, 0.014, -0.024, 1.016, 192.0, 0.0, 0.0, 0.0, 0.0, 0.0, 0.0, 0.0, 0.0, 0.0, 1.7721633142948024E9, 0.0, 2026-02-26 19:35:14.294
127.0, 11869.044526701515, 3229.6035563473174, 13164.819856264576, 860.184533618037, 12699.568295427358, -1620.3226590541196, 5688.407205153371, 13178.208551193304, 0.014, -0.024, 1.016, 192.0, 0.0, 0.0, 0.0, 0.0, 0.0, 0.0, 0.0, 0.0, 0.0, 1.7721633142978036E9, 0.0, 2026-02-26 19:35:14.297
128.0, 11872.419640114265, 3252.469390925097, 13166.853865010007, 864.6995859980091, 12702.026987317442, -1615.2041095738543, 5688.630722597924, 13180.555484361112, 0.014, -0.024, 1.016, 192.0, 0.0, 0.0, 0.0, 0.0, 0.0, 0.0, 0.0, 0.0, 0.0, 1.7721633143018403E9, 0.0, 2026-02-26 19:35:14.301
129.0, 11876.39825062731, 3338.7024210336713, 13169.290205155636, 866.152449387604, 12704.485679207526, -1614.1312258399996, 5689.949475520787, 13183.260045440204, 0.014, -0.024, 1.016, 192.0, 0.0, 0.0, 0.0, 0.0, 0.0, 0.0, 0.0, 0.0, 0.0, 1.7721633143058732E9, 0.0, 2026-02-26 19:35:14.305
130.0, 11872.509047092086, 3289.0144931095238, 13167.390306876936, 869.4605075669895, 12702.60813267328, -1611.0466851051672, 5690.105937731974, 13181.449554139323, 0.014, -0.02, 1.01, 192.0, 0.0, 112.0, 255.0, 96.0, 31.0, 144.0, 0.0, 0.0, 0.0, 1.7721633143109076E9, 0.0, 2026-02-26 19:35:14.310
131.0, 11876.420602371765, 3363.892837034802, 13167.122085943472, 869.3934523336235, 12702.116394295264, -1611.247850805265, 5689.837716798511, 13181.002519250218, 0.014, -0.02, 1.01, 192.0, 0.0, 0.0, 0.0, 0.0, 0.0, 0.0, 0.0, 0.0, 0.0, 1.7721633143149354E9, 0.0, 2026-02-26 19:35:14.314
132.0, 11877.78405878354, 3370.5983603713944, 13165.93744348734, 868.4323273220454, 12700.730586139034, -1612.2983827946643, 5690.105937731974, 13179.773173305175, 0.014, -0.02, 1.01, 192.0, 0.0, 0.0, 0.0, 0.0, 0.0, 0.0, 0.0, 0.0, 0.0, 1.7721633143189042E9, 0.0, 2026-02-26 19:35:14.318
133.0, 11876.599416327408, 3349.2747961610316, 13165.713926042787, 868.6781965110537, 12700.7976413724, -1611.8066444166475, 5690.105937731974, 13179.639062838443, 0.014, -0.02, 1.01, 192.0, 0.0, 0.0, 0.0, 0.0, 0.0, 0.0, 0.0, 0.0, 0.0, 1.77216331432293E9, 0.0, 2026-02-26 19:35:14.322
134.0, 11879.058108217492, 3380.9472180542016, 13166.585644076544, 866.375966832157, 12702.22815301754, -1614.3994467734633, 5689.055405742575, 13180.331966916558, 0.014, -0.02, 1.01, 192.0, 0.0, 0.0, 0.0, 0.0, 0.0, 0.0, 0.0, 0.0, 0.0, 1.7721633143260164E9, 0.0, 2026-02-26 19:35:14.326
135.0, 11880.801544285005, 3377.57210464145, 13166.607995821, 868.477030810956, 12702.22815301754, -1612.4995484947622, 5689.1001092314855, 13180.46607738329, 0.014, -0.02, 1.01, 192.0, 0.0, 0.0, 0.0, 0.0, 0.0, 0.0, 0.0, 0.0, 0.0, 1.772163314329974E9, 0.0, 2026-02-26 19:35:14.329
136.0, 11883.304939664, 3385.3058082229863, 13166.719754543275, 870.8910192121291, 12702.563429184369, -1609.9961531157678, 5689.323626676039, 13180.644891338932, 0.014, -0.02, 1.01, 192.0, 0.0, 0.0, 0.0, 0.0, 0.0, 0.0, 0.0, 0.0, 0.0, 1.7721633143339791E9, 0.0, 2026-02-26 19:35:14.333
137.0, 11881.047413474014, 3357.1426102092996, 13166.630347565455, 872.3438826017241, 12702.563429184369, -1608.4538827483516, 5689.5694958650465, 13180.622539594477, 0.014, -0.02, 1.01, 192.0, 0.0, 0.0, 0.0, 0.0, 0.0, 0.0, 0.0, 0.0, 0.0, 1.7721633143380058E9, 0.0, 2026-02-26 19:35:14.338
138.0, 11881.695614063217, 3390.3796542143414, 13166.473885354268, 874.0426151803274, 12702.18344952863, -1606.3081152806421, 5689.2789231871275, 13180.443725638836, 0.014, -0.02, 1.01, 192.0, 0.0, 0.0, 0.0, 0.0, 0.0, 0.0, 0.0, 0.0, 0.0, 1.772163314343058E9, 0.0, 2026-02-26 19:35:14.343
139.0, 11885.674224576262, 3419.3698667728745, 13167.189141176837, 870.6898535120313, 12702.295208250905, -1609.1914903153768, 5689.055405742575, 13180.913112272396, 0.014, -0.02, 1.01, 192.0, 0.0, 0.0, 0.0, 0.0, 0.0, 0.0, 0.0, 0.0, 0.0, 1.7721633143470678E9, 0.0, 2026-02-26 19:35:14.347
140.0, 11885.07072747597, 3378.0861947639223, 13165.870388253974, 867.8064784772968, 12700.931751839133, -1612.4771967503068, 5689.323626676039, 13179.572007605078, 0.016, -0.02, 1.01, 192.0, 0.0, 128.0, 255.0, 96.0, 31.0, 144.0, 0.0, 0.0, 0.0, 1.7721633143510857E9, 0.0, 2026-02-26 19:35:14.351
141.0, 11884.06489897548, 3370.933636538224, 13166.138609187437, 868.5887895332324, 12701.356434983783, -1611.3819612719967, 5689.189516209307, 13179.99669074973, 0.016, -0.02, 1.01, 192.0, 0.0, 0.0, 0.0, 0.0, 0.0, 0.0, 0.0, 0.0, 0.0, 1.772163314354088E9, 0.0, 2026-02-26 19:35:14.354
142.0, 11883.103773963901, 3354.415697385752, 13166.809161521098, 871.4051093346011, 12702.27285650645, -1608.476234492807, 5688.653074342379, 13180.80135355012, 0.016, -0.02, 1.01, 192.0, 0.0, 0.0, 0.0, 0.0, 0.0, 0.0, 0.0, 0.0, 0.0, 1.7721633143580923E9, 0.0, 2026-02-26 19:35:14.358
143.0, 11884.44487863122, 3359.668357332749, 13166.876216754463, 874.4896500694335, 12702.675187906647, -1605.1234728245108, 5689.323626676039, 13180.89076052794, 0.016, -0.02, 1.01, 192.0, 0.0, 0.0, 0.0, 0.0, 0.0, 0.0, 0.0, 0.0, 0.0, 1.7721633143621135E9, 0.0, 2026-02-26 19:35:14.362
144.0, 11880.935654751738, 3284.9911791075683, 13165.60216732051, 876.4342518370453, 12701.490545450515, -1602.955353612346, 5688.921295275843, 13179.728469816266, 0.016, -0.02, 1.01, 192.0, 0.0, 0.0, 0.0, 0.0, 0.0, 0.0, 0.0, 0.0, 0.0, 1.772163314366148E9, 0.0, 2026-02-26 19:35:14.366
145.0, 11880.756840796095, 3285.5052692300405, 13167.926748743863, 877.3730251041682, 12703.41279547367, -1602.1730425564103, 5688.787184809111, 13182.03069949516, 0.016, -0.02, 1.01, 192.0, 0.0, 0.0, 0.0, 0.0, 0.0, 0.0, 0.0, 0.0, 0.0, 1.7721633143701763E9, 0.0, 2026-02-26 19:35:14.370
146.0, 11885.383651898343, 3393.2630292490758, 13170.161923189393, 878.7141297714866, 12705.312693752372, -1600.3849029999858, 5689.010702253664, 13184.265873940692, 0.016, -0.02, 1.01, 192.0, 0.0, 0.0, 0.0, 0.0, 0.0, 0.0, 0.0, 0.0, 0.0, 1.772163314375192E9, 0.0, 2026-02-26 19:35:14.375
147.0, 11885.696576320717, 3415.547718471017, 13168.776115033164, 879.8987722276179, 12703.971589085055, -1599.3343710105862, 5688.653074342379, 13182.857714040008, 0.016, -0.02, 1.01, 192.0, 0.0, 0.0, 0.0, 0.0, 0.0, 0.0, 0.0, 0.0, 0.0, 1.77216331437921E9, 0.0, 2026-02-26 19:35:14.379
148.0, 11884.10960246439, 3383.674130877749, 13166.876216754463, 881.0834146837491, 12702.094042550809, -1597.4568244763404, 5688.2730946866395, 13180.957815761307, 0.016, -0.02, 1.01, 192.0, 0.0, 0.0, 0.0, 0.0, 0.0, 0.0, 0.0, 0.0, 0.0, 1.7721633143822246E9, 0.0, 2026-02-26 19:35:14.382
149.0, 11884.914265264782, 3381.394252943308, 13167.122085943472, 884.1456036741262, 12702.406966973182, -1592.8747168630025, 5689.055405742575, 13181.047222739127, 0.016, -0.02, 1.01, 192.0, 0.0, 0.0, 0.0, 0.0, 0.0, 0.0, 0.0, 0.0, 0.0, 1.7721633143862953E9, 0.0, 2026-02-26 19:35:14.386
150.0, 11884.06489897548, 3340.512912334551, 13167.926748743863, 883.8550309962072, 12703.636312918225, -1593.2546965187428, 5689.301274931583, 13181.985996006251, 0.018000000000000002, -0.022, 1.014, 192.0, 0.0, 144.0, 255.0, 80.0, 31.0, 176.0, 0.0, 0.0, 0.0, 1.7721633143903081E9, 0.0, 2026-02-26 19:35:14.390
151.0, 11882.50027686361, 3280.3643680053196, 13167.256196410204, 882.0668914397826, 12702.831650117834, -1595.959257597835, 5689.2789231871275, 13181.337795417046, 0.018000000000000002, -0.022, 1.014, 192.0, 0.0, 0.0, 0.0, 0.0, 0.0, 0.0, 0.0, 0.0, 0.0, 1.7721633143942952E9, 0.0, 2026-02-26 19:35:14.394
152.0, 11885.338948409433, 3311.2097753536436, 13167.591472577033, 881.9551327175061, 12703.479850707037, -1596.0486645756562, 5688.586019109013, 13181.784830306153, 0.018000000000000002, -0.022, 1.014, 192.0, 0.0, 0.0, 0.0, 0.0, 0.0, 0.0, 0.0, 0.0, 0.0, 1.7721633143983333E9, 0.0, 2026-02-26 19:35:14.398
153.0, 11891.932713023749, 3406.1152823108773, 13169.22314992227, 881.3739873616681, 12705.491507708015, -1596.0710163201113, 5688.2730946866395, 13183.4612111403, 0.018000000000000002, -0.022, 1.014, 192.0, 0.0, 0.0, 0.0, 0.0, 0.0, 0.0, 0.0, 0.0, 0.0, 1.772163314402347E9, 0.0, 2026-02-26 19:35:14.402
154.0, 11893.385576413344, 3426.611831976394, 13170.050164467117, 882.7821472623524, 12706.251467019496, -1595.2216500308098, 5688.407205153371, 13184.243522196237, 0.018000000000000002, -0.022, 1.014, 192.0, 0.0, 0.0, 0.0, 0.0, 0.0, 0.0, 0.0, 0.0, 0.0, 1.7721633144073527E9, 0.0, 2026-02-26 19:35:14.407
155.0, 11888.803468800006, 3366.463287647163, 13167.32325164357, 881.7092635284977, 12702.965760584566, -1596.1380715534774, 5687.960170264265, 13181.5613128616, 0.018000000000000002, -0.022, 1.014, 192.0, 0.0, 0.0, 0.0, 0.0, 0.0, 0.0, 0.0, 0.0, 0.0, 1.7721633144104097E9, 0.0, 2026-02-26 19:35:14.410
156.0, 11887.73058506615, 3323.5702900374285, 13166.496237098723, 880.3905106056346, 12702.026987317442, -1596.920382609413, 5688.027225497631, 13180.622539594477, 0.018000000000000002, -0.022, 1.014, 192.0, 0.0, 0.0, 0.0, 0.0, 0.0, 0.0, 0.0, 0.0, 0.0, 1.7721633144143744E9, 0.0, 2026-02-26 19:35:14.414
157.0, 11887.663529832786, 3269.434364966675, 13166.384478376447, 877.0153971928833, 12702.362263484272, -1600.6307721889941, 5688.228391197728, 13180.399022149924, 0.018000000000000002, -0.022, 1.014, 192.0, 0.0, 0.0, 0.0, 0.0, 0.0, 0.0, 0.0, 0.0, 0.0, 1.772163314418395E9, 0.0, 2026-02-26 19:35:14.418
158.0, 11884.668396075773, 3223.300364410921, 13166.31742314308, 875.3837198476458, 12702.51872569546, -1603.4023885014522, 5688.31779817555, 13180.577836105567, 0.018000000000000002, -0.022, 1.014, 192.0, 0.0, 0.0, 0.0, 0.0, 0.0, 0.0, 0.0, 0.0, 0.0, 1.7721633144224236E9, 0.0, 2026-02-26 19:35:14.422
159.0, 11889.675186833761, 3324.9784499381126, 13167.36795513248, 875.8307547367519, 12703.435147218126, -1602.798891401159, 5688.407205153371, 13181.404850650413, 0.018000000000000002, -0.022, 1.014, 192.0, 0.0, 0.0, 0.0, 0.0, 0.0, 0.0, 0.0, 0.0, 0.0, 1.772163314426426E9, 0.0, 2026-02-26 19:35:14.426
160.0, 11890.815125800984, 3317.4012085677637, 13167.479713854756, 874.4896500694335, 12703.479850707037, -1604.2964582796644, 5688.474260386737, 13181.628368094965, 0.02, -0.022, 1.012, 192.0, 0.0, 160.0, 255.0, 80.0, 31.0, 160.0, 0.0, 0.0, 0.0, 1.7721633144304707E9, 0.0, 2026-02-26 19:35:14.430
161.0, 11890.323387422966, 3263.779373619482, 13168.642004566433, 871.8521442237073, 12704.7986036299, -1607.760978670237, 5687.401376652882, 13182.924769273373, 0.02, -0.022, 1.012, 192.0, 0.0, 0.0, 0.0, 0.0, 0.0, 0.0, 0.0, 0.0, 0.0, 1.772163314434478E9, 0.0, 2026-02-26 19:35:14.434
162.0, 11891.843306045927, 3339.417676856241, 13169.245501666726, 869.8181354782744, 12705.379748985739, -1610.309077538142, 5687.088452230508, 13183.438859395847, 0.02, -0.022, 1.012, 192.0, 0.0, 0.0, 0.0, 0.0, 0.0, 0.0, 0.0, 0.0, 0.0, 1.772163314437482E9, 0.0, 2026-02-26 19:35:14.437
163.0, 11894.324349680466, 3419.7051429397043, 13168.485542355245, 870.0416529228274, 12704.508030951982, -1610.1973188158654, 5687.580190608524, 13182.74595531773, 0.02, -0.022, 1.012, 192.0, 0.0, 0.0, 0.0, 0.0, 0.0, 0.0, 0.0, 0.0, 0.0, 1.7721633144415195E9, 0.0, 2026-02-26 19:35:14.441
164.0, 11895.061957247492, 3412.999619603112, 13167.077382454561, 871.0027779344056, 12703.189278029118, -1609.213842059832, 5688.049577242086, 13181.404850650413, 0.02, -0.022, 1.012, 192.0, 0.0, 0.0, 0.0, 0.0, 0.0, 0.0, 0.0, 0.0, 0.0, 1.7721633144465292E9, 0.0, 2026-02-26 19:35:14.446
165.0, 11890.68101533425, 3316.5741940229173, 13164.909263242396, 870.7792604898525, 12701.289379750417, -1609.660876948938, 5688.876591786932, 13179.348490160524, 0.02, -0.022, 1.012, 192.0, 0.0, 0.0, 0.0, 0.0, 0.0, 0.0, 0.0, 0.0, 0.0, 1.772163314450548E9, 0.0, 2026-02-26 19:35:14.450
166.0, 11890.92688452326, 3339.417676856241, 13165.468056853779, 869.4605075669895, 12701.46819370606, -1610.9125746384352, 5689.211867953762, 13179.549655860623, 0.02, -0.022, 1.012, 192.0, 0.0, 0.0, 0.0, 0.0, 0.0, 0.0, 0.0, 0.0, 0.0, 1.7721633144545677E9, 0.0, 2026-02-26 19:35:14.454
167.0, 11893.16205896879, 3378.1085465083775, 13165.915091742885, 868.2758651108581, 12701.937580339621, -1611.7395891832816, 5688.831888298022, 13179.929635516362, 0.02, -0.022, 1.012, 192.0, 0.0, 0.0, 0.0, 0.0, 0.0, 0.0, 0.0, 0.0, 0.0, 1.772163314458608E9, 0.0, 2026-02-26 19:35:14.458
168.0, 11891.530381623554, 3339.149455922777, 13165.468056853779, 868.3205685997688, 12701.579952428336, -1611.8066444166475, 5688.563667364558, 13179.661414582899, 0.02, -0.022, 1.012, 192.0, 0.0, 0.0, 0.0, 0.0, 0.0, 0.0, 0.0, 0.0, 0.0, 1.7721633144616284E9, 0.0, 2026-02-26 19:35:14.461
169.0, 11892.379747912855, 3357.991976498601, 13164.953966731307, 869.5946180337213, 12701.222324517052, -1610.8008159161589, 5688.653074342379, 13179.169676204881, 0.02, -0.022, 1.012, 192.0, 0.0, 0.0, 0.0, 0.0, 0.0, 0.0, 0.0, 0.0, 0.0, 1.7721633144656649E9, 0.0, 2026-02-26 19:35:14.465
170.0, 11887.39530889932, 3284.387682007275, 13163.702269041809, 869.1699348890704, 12699.925923338644, -1611.8289961611029, 5688.876591786932, 13178.007385493207, 0.016, -0.02, 1.01, 192.0, 0.0, 128.0, 255.0, 96.0, 31.0, 144.0, 0.0, 0.0, 0.0, 1.7721633144696648E9, 0.0, 2026-02-26 19:35:14.469
171.0, 11890.412794400787, 3351.9570054956685, 13166.496237098723, 871.7403855014308, 12703.166926284663, -1608.1186065815218, 5688.69777783129, 13180.644891338932, 0.016, -0.02, 1.01, 192.0, 0.0, 0.0, 0.0, 0.0, 0.0, 0.0, 0.0, 0.0, 0.0, 1.7721633144736724E9, 0.0, 2026-02-26 19:35:14.473
172.0, 11891.776250812562, 3397.2639915065756, 13166.205664420804, 872.1650686460816, 12702.764594884467, -1606.7775019142034, 5688.384853408916, 13180.46607738329, 0.016, -0.02, 1.01, 192.0, 0.0, 0.0, 0.0, 0.0, 0.0, 0.0, 0.0, 0.0, 0.0, 1.7721633144787483E9, 0.0, 2026-02-26 19:35:14.478
173.0, 11894.994902014125, 3414.407779503796, 13167.32325164357, 869.6840250115425, 12703.591609429313, -1609.1691385709214, 5686.976693508232, 13181.494257628234, 0.016, -0.02, 1.01, 192.0, 0.0, 0.0, 0.0, 0.0, 0.0, 0.0, 0.0, 0.0, 0.0, 1.772163314482707E9, 0.0, 2026-02-26 19:35:14.482
174.0, 11894.190239213734, 3400.2144217746763, 13166.540940587634, 868.7676034888749, 12703.010464073475, -1610.4208362604186, 5686.954341763776, 13180.84605703903, 0.016, -0.02, 1.01, 192.0, 0.0, 0.0, 0.0, 0.0, 0.0, 0.0, 0.0, 0.0, 0.0, 1.7721633144867585E9, 0.0, 2026-02-26 19:35:14.486
175.0, 11892.089175234936, 3395.8558316058916, 13164.819856264576, 868.5664377887772, 12701.46819370606, -1611.2254990608096, 5687.60254235298, 13179.124972715972, 0.016, -0.02, 1.01, 192.0, 0.0, 0.0, 0.0, 0.0, 0.0, 0.0, 0.0, 0.0, 0.0, 1.7721633144897544E9, 0.0, 2026-02-26 19:35:14.489
176.0, 11891.35156766791, 3383.2494477330983, 13163.635213808444, 870.0416529228274, 12700.350606483295, -1610.89022289398, 5687.826059797533, 13178.208551193304, 0.016, -0.02, 1.01, 192.0, 0.0, 0.0, 0.0, 0.0, 0.0, 0.0, 0.0, 0.0, 0.0, 1.7721633144937909E9, 0.0, 2026-02-26 19:35:14.493
177.0, 11890.97158801217, 3390.6255234033497, 13162.472923096768, 871.8521442237073, 12699.523591938449, -1608.7444554262706, 5688.183687708818, 13177.090963970539, 0.016, -0.02, 1.01, 192.0, 0.0, 0.0, 0.0, 0.0, 0.0, 0.0, 0.0, 0.0, 0.0, 1.7721633144978E9, 0.0, 2026-02-26 19:35:14.497
178.0, 11888.512896122087, 3336.4001913547745, 13162.361164374492, 868.5664377887772, 12699.188315771618, -1611.3596095275414, 5688.653074342379, 13176.755687803708, 0.016, -0.02, 1.01, 192.0, 0.0, 0.0, 0.0, 0.0, 0.0, 0.0, 0.0, 0.0, 0.0, 1.7721633145018468E9, 0.0, 2026-02-26 19:35:14.501
179.0, 11886.791811799028, 3303.8113479389367, 13163.568158575077, 865.3924900761235, 12700.238847761018, -1615.2711648072202, 5688.250742942184, 13178.096792471028, 0.016, -0.02, 1.01, 192.0, 0.0, 0.0, 0.0, 0.0, 0.0, 0.0, 0.0, 0.0, 0.0, 1.7721633145058377E9, 0.0, 2026-02-26 19:35:14.505
180.0, 11890.748070567617, 3381.3271977099416, 13164.864559753485, 864.0066819198945, 12701.46819370606, -1617.1263595970106, 5686.842583041499, 13179.28143492716, 0.018000000000000002, -0.028, 1.016, 192.0, 0.0, 144.0, 255.0, 32.0, 31.0, 192.0, 0.0, 0.0, 0.0, 1.7721633145108569E9, 0.0, 2026-02-26 19:35:14.510
181.0, 11892.044471746025, 3401.622581675361, 13165.08807719804, 864.8560482091962, 12701.579952428336, -1615.047647362667, 5686.194382452296, 13179.504952371712, 0.018000000000000002, -0.028, 1.016, 192.0, 0.0, 0.0, 0.0, 0.0, 0.0, 0.0, 0.0, 0.0, 0.0, 1.7721633145148523E9, 0.0, 2026-02-26 19:35:14.514
182.0, 11890.837477545438, 3367.1114882363663, 13163.478751597257, 864.185495875537, 12700.015330316464, -1614.7347229402928, 5685.970865007743, 13177.917978515385, 0.018000000000000002, -0.028, 1.016, 192.0, 0.0, 0.0, 0.0, 0.0, 0.0, 0.0, 0.0, 0.0, 0.0, 1.7721633145179076E9, 0.0, 2026-02-26 19:35:14.517
183.0, 11890.792774056528, 3351.062935717456, 13164.12695218646, 864.0737371532605, 12700.551772183391, -1615.2935165516756, 5685.814402796555, 13178.610882593499, 0.018000000000000002, -0.028, 1.016, 192.0, 0.0, 0.0, 0.0, 0.0, 0.0, 0.0, 0.0, 0.0, 0.0, 1.7721633145219157E9, 0.0, 2026-02-26 19:35:14.521
184.0, 11886.50123912111, 3272.876533612792, 13162.383516118947, 865.0125104203834, 12698.51776343796, -1614.2206328178208, 5686.350844663482, 13176.778039548164, 0.018000000000000002, -0.028, 1.016, 192.0, 0.0, 0.0, 0.0, 0.0, 0.0, 0.0, 0.0, 0.0, 0.0, 1.7721633145259624E9, 0.0, 2026-02-26 19:35:14.525
185.0, 11887.797640299517, 3329.672316273727, 13163.702269041809, 863.2020191195035, 12699.501240193993, -1616.500510752262, 5686.596713852491, 13177.917978515385, 0.018000000000000002, -0.028, 1.016, 192.0, 0.0, 0.0, 0.0, 0.0, 0.0, 0.0, 0.0, 0.0, 0.0, 1.7721633145299563E9, 0.0, 2026-02-26 19:35:14.529
186.0, 11889.78694555604, 3357.455534631674, 13163.702269041809, 859.7822022178415, 12699.9482750831, -1620.0097346317452, 5685.926161518832, 13177.917978515385, 0.018000000000000002, -0.028, 1.016, 192.0, 0.0, 0.0, 0.0, 0.0, 0.0, 0.0, 0.0, 0.0, 0.0, 1.77216331453397E9, 0.0, 2026-02-26 19:35:14.533
187.0, 11891.508029879098, 3392.257200748587, 13164.752801031209, 861.2127138629811, 12701.155269283685, -1618.1321880974995, 5685.702644074278, 13179.102620971516, 0.018000000000000002, -0.028, 1.016, 192.0, 0.0, 0.0, 0.0, 0.0, 0.0, 0.0, 0.0, 0.0, 0.0, 1.772163314538014E9, 0.0, 2026-02-26 19:35:14.538
188.0, 11892.73737582414, 3419.4592737506955, 13165.289242898136, 866.2195046209699, 12701.423490217148, -1611.98545837229, 5686.1049754744745, 13179.773173305175, 0.018000000000000002, -0.028, 1.016, 192.0, 0.0, 0.0, 0.0, 0.0, 0.0, 0.0, 0.0, 0.0, 0.0, 1.772163314543038E9, 0.0, 2026-02-26 19:35:14.543
189.0, 11891.888009534838, 3391.4301862037405, 13165.803333020609, 868.3205685997688, 12701.98228382853, -1609.3256007821085, 5686.1049754744745, 13180.331966916558, 0.018000000000000002, -0.028, 1.016, 192.0, 0.0, 0.0, 0.0, 0.0, 0.0, 0.0, 0.0, 0.0, 0.0, 1.7721633145460415E9, 0.0, 2026-02-26 19:35:14.546
190.0, 11888.177619955257, 3287.092243086367, 13164.909263242396, 866.6441877656207, 12701.445841961604, -1610.9125746384352, 5686.015568496653, 13179.504952371712, 0.02, -0.028, 1.01, 192.0, 0.0, 160.0, 255.0, 32.0, 31.0, 144.0, 0.0, 0.0, 0.0, 1.7721633145500438E9, 0.0, 2026-02-26 19:35:14.550
191.0, 11889.116393222379, 3274.061176068923, 13166.451533609812, 865.4371935650341, 12703.345740240306, -1612.3877897724856, 5685.4567748852705, 13181.13662971695, 0.02, -0.028, 1.01, 192.0, 0.0, 0.0, 0.0, 0.0, 0.0, 0.0, 0.0, 0.0, 0.0, 1.77216331455405E9, 0.0, 2026-02-26 19:35:14.554
192.0, 11893.273817691066, 3373.682901106227, 13166.496237098723, 863.6490540086096, 12702.94340884011, -1614.5559089846504, 5685.590885352002, 13180.84605703903, 0.02, -0.028, 1.01, 192.0, 0.0, 0.0, 0.0, 0.0, 0.0, 0.0, 0.0, 0.0, 0.0, 1.7721633145580907E9, 0.0, 2026-02-26 19:35:14.558
193.0, 11892.44680314622, 3400.6614566637822, 13165.333946387047, 865.4148418205789, 12701.736414639523, -1611.5831269720945, 5685.881458029921, 13179.616711093988, 0.02, -0.028, 1.01, 192.0, 0.0, 0.0, 0.0, 0.0, 0.0, 0.0, 0.0, 0.0, 0.0, 1.7721633145620909E9, 0.0, 2026-02-26 19:35:14.562
194.0, 11895.3078264365, 3412.1726050582656, 13166.004498720706, 860.8103824627856, 12701.937580339621, -1616.3664002855303, 5685.680292329824, 13179.683766327355, 0.02, -0.028, 1.01, 192.0, 0.0, 0.0, 0.0, 0.0, 0.0, 0.0, 0.0, 0.0, 0.0, 1.7721633145661302E9, 0.0, 2026-02-26 19:35:14.566
195.0, 11893.743204324628, 3408.86454687888, 13164.730449286753, 861.9503214300063, 12701.021158816953, -1615.829958418603, 5685.7920510521, 13178.767344804686, 0.02, -0.028, 1.01, 192.0, 0.0, 0.0, 0.0, 0.0, 0.0, 0.0, 0.0, 0.0, 0.0, 1.7721633145711575E9, 0.0, 2026-02-26 19:35:14.571
196.0, 11892.089175234936, 3397.5322124400395, 13164.08224869755, 864.4313650645454, 12700.350606483295, -1613.3265630396086, 5685.948513263287, 13178.342661660035, 0.02, -0.028, 1.01, 192.0, 0.0, 0.0, 0.0, 0.0, 0.0, 0.0, 0.0, 0.0, 0.0, 1.7721633145741467E9, 0.0, 2026-02-26 19:35:14.574
197.0, 11892.424451401765, 3373.995825528601, 13165.311594642591, 863.9619784309839, 12701.401138472693, -1614.1982810733655, 5685.702644074278, 13179.326138416069, 0.02, -0.028, 1.01, 192.0, 0.0, 0.0, 0.0, 0.0, 0.0, 0.0, 0.0, 0.0, 0.0, 1.7721633145782776E9, 0.0, 2026-02-26 19:35:14.578
198.0, 11893.139707224334, 3351.8899502623026, 13165.646870809422, 864.5654755312772, 12701.98228382853, -1612.857176406047, 5685.568533607547, 13179.549655860623, 0.02, -0.028, 1.01, 192.0, 0.0, 0.0, 0.0, 0.0, 0.0, 0.0, 0.0, 0.0, 0.0, 1.77216331458225E9, 0.0, 2026-02-26 19:35:14.582
199.0, 11891.083346734447, 3325.3360778493975, 13163.299937641614, 864.6995859980091, 12699.65770240518, -1612.1419205834773, 5685.568533607547, 13177.381536648458, 0.02, -0.028, 1.01, 192.0, 0.0, 0.0, 0.0, 0.0, 0.0, 0.0, 0.0, 0.0, 0.0, 1.7721633145863044E9, 0.0, 2026-02-26 19:35:14.586
200.0, 11891.820954301473, 3352.381688640319, 13161.51179808519, 862.375004574657, 12698.137783782218, -1614.824129918114, 5685.479126629726, 13175.772211047675, 0.018000000000000002, -0.026000000000000002, 1.018, 192.0, 0.0, 144.0, 255.0, 48.0, 31.0, 208.0, 0.0, 0.0, 0.0, 1.772163314590265E9, 0.0, 2026-02-26 19:35:14.590
201.0, 11889.25050368911, 3275.7599086475266, 13162.22705390776, 860.0057196623945, 12698.316597737861, -1618.0204293752229, 5685.233257440717, 13176.129838958961, 0.018000000000000002, -0.026000000000000002, 1.018, 192.0, 0.0, 0.0, 0.0, 0.0, 0.0, 0.0, 0.0, 0.0, 0.0, 1.7721633145943432E9, 0.0, 2026-02-26 19:35:14.594
202.0, 11887.68588157724, 3193.9972274300135, 13165.311594642591, 862.7549842303973, 12701.155269283685, -1614.9358886403907, 5686.373196407938, 13179.326138416069, 0.018000000000000002, -0.026000000000000002, 1.018, 192.0, 0.0, 0.0, 0.0, 0.0, 0.0, 0.0, 0.0, 0.0, 0.0, 1.7721633145983424E9, 0.0, 2026-02-26 19:35:14.598
203.0, 11887.283550177044, 3202.066207178379, 13165.22218766477, 864.2078476199923, 12701.13291753923, -1613.438321761885, 5686.529658619125, 13179.28143492716, 0.018000000000000002, -0.026000000000000002, 1.018, 192.0, 0.0, 0.0, 0.0, 0.0, 0.0, 0.0, 0.0, 0.0, 0.0, 1.772163314602316E9, 0.0, 2026-02-26 19:35:14.602
204.0, 11888.490544377632, 3246.4344199221637, 13166.384478376447, 861.9056179410957, 12702.719891395556, -1615.6734962074156, 5685.881458029921, 13180.600187850021, 0.018000000000000002, -0.026000000000000002, 1.018, 192.0, 0.0, 0.0, 0.0, 0.0, 0.0, 0.0, 0.0, 0.0, 0.0, 1.7721633146053424E9, 0.0, 2026-02-26 19:35:14.605
205.0, 11893.005596757603, 3354.683918319216, 13166.362126631991, 861.7938592188191, 12702.8987053512, -1615.405275273952, 5686.149678963385, 13180.376670405469, 0.018000000000000002, -0.026000000000000002, 1.018, 192.0, 0.0, 0.0, 0.0, 0.0, 0.0, 0.0, 0.0, 0.0, 0.0, 1.7721633146103358E9, 0.0, 2026-02-26 19:35:14.610
206.0, 11891.843306045927, 3331.259290130054, 13164.864559753485, 861.4585830519895, 12701.289379750417, -1615.2264613183095, 5686.529658619125, 13178.834400038053, 0.018000000000000002, -0.026000000000000002, 1.018, 192.0, 0.0, 0.0, 0.0, 0.0, 0.0, 0.0, 0.0, 0.0, 0.0, 1.772163314614402E9, 0.0, 2026-02-26 19:35:14.614
207.0, 11893.229114202157, 3257.3420712163534, 13166.987975476739, 861.9726731744615, 12702.8987053512, -1615.3829235294968, 5687.244914441695, 13180.734298316753, 0.018000000000000002, -0.026000000000000002, 1.018, 192.0, 0.0, 0.0, 0.0, 0.0, 0.0, 0.0, 0.0, 0.0, 0.0, 1.7721633146183796E9, 0.0, 2026-02-26 19:35:14.618
208.0, 11902.728605595661, 3394.2465060051095, 13169.357260389002, 862.3303010857464, 12705.156231541185, -1615.2264613183095, 5687.177859208329, 13183.125934973472, 0.018000000000000002, -0.026000000000000002, 1.018, 192.0, 0.0, 0.0, 0.0, 0.0, 0.0, 0.0, 0.0, 0.0, 0.0, 1.772163314622392E9, 0.0, 2026-02-26 19:35:14.622
209.0, 11901.92394279527, 3361.255331189076, 13167.278548154658, 862.9337981860398, 12703.010464073475, -1614.310039795642, 5686.484955130214, 13180.957815761307, 0.018000000000000002, -0.026000000000000002, 1.018, 192.0, 0.0, 0.0, 0.0, 0.0, 0.0, 0.0, 0.0, 0.0, 0.0, 1.7721633146264381E9, 0.0, 2026-02-26 19:35:14.626
210.0, 11900.918114294782, 3363.579912612428, 13164.752801031209, 859.4916295399224, 12700.238847761018, -1618.6909817088822, 5686.3955481523935, 13178.387365148947, 0.018000000000000002, -0.026000000000000002, 1.018, 192.0, 0.0, 0.0, 0.0, 0.0, 0.0, 0.0, 0.0, 0.0, 0.0, 1.7721633146294634E9, 0.0, 2026-02-26 19:35:14.629
211.0, 11900.091099749936, 3281.5937139503617, 13160.818894007076, 860.3186440847688, 12695.723795381045, -1618.1768915864102, 5685.702644074278, 13174.252292424715, 0.018000000000000002, -0.026000000000000002, 1.022, 192.0, 0.0, 144.0, 255.0, 48.0, 31.0, 240.0, 0.0, 0.0, 0.0, 1.7721633146334522E9, 0.0, 2026-02-26 19:35:14.633
212.0, 11925.728550640173, 3071.822592237305, 13155.096847426516, 859.1563533730929, 12688.481830177527, -1619.8532724205581, 5684.406242895871, 13167.32325164357, 0.018000000000000002, -0.026000000000000002, 1.022, 192.0, 0.0, 0.0, 0.0, 0.0, 0.0, 0.0, 0.0, 0.0, 0.0, 1.7721633146375036E9, 0.0, 2026-02-26 19:35:14.637
213.0, 11960.79843769055, 3046.073382624791, 13141.104655397494, 860.7880307183303, 12674.735507337513, -1618.534519497695, 5684.607408595969, 13153.599280548011, 0.018000000000000002, -0.026000000000000002, 1.022, 192.0, 0.0, 0.0, 0.0, 0.0, 0.0, 0.0, 0.0, 0.0, 0.0, 1.772163314642506E9, 0.0, 2026-02-26 19:35:14.642
214.0, 11978.791591977071, 3046.8333419362716, 13130.88990818142, 860.4527545515007, 12665.236015944007, -1618.7133334533376, 5684.965036507254, 13144.07743741005, 0.018000000000000002, -0.026000000000000002, 1.022, 192.0, 0.0, 0.0, 0.0, 0.0, 0.0, 0.0, 0.0, 0.0, 0.0, 1.772163314646576E9, 0.0, 2026-02-26 19:35:14.646
215.0, 11991.710900272239, 3043.011193634414, 13124.474957522745, 856.3176818272689, 12658.776361796423, -1623.1613305999435, 5684.719167318245, 13137.617783262467, 0.018000000000000002, -0.026000000000000002, 1.022, 192.0, 0.0, 0.0, 0.0, 0.0, 0.0, 0.0, 0.0, 0.0, 0.0, 1.7721633146506135E9, 0.0, 2026-02-26 19:35:14.650
216.0, 11999.221086409223, 3037.3785540316767, 13119.937553398318, 855.6918329825203, 12653.836626271801, -1624.9047666674576, 5685.07679522953, 13133.080379138039, 0.018000000000000002, -0.026000000000000002, 1.022, 192.0, 0.0, 0.0, 0.0, 0.0, 0.0, 0.0, 0.0, 0.0, 0.0, 1.7721633146545844E9, 0.0, 2026-02-26 19:35:14.654
217.0, 12006.865383012937, 3033.377591774177, 13118.529393497634, 860.3633475736794, 12652.383762882206, -1619.7415136982816, 5685.03209174062, 13131.69457098181, 0.018000000000000002, -0.026000000000000002, 1.022, 192.0, 0.0, 0.0, 0.0, 0.0, 0.0, 0.0, 0.0, 0.0, 0.0, 1.7721633146576073E9, 0.0, 2026-02-26 19:35:14.657
218.0, 12012.587429593495, 3033.7799231743725, 13115.064873107061, 864.9678069314728, 12649.232166914007, -1612.857176406047, 5685.300312674083, 13128.274754080148, 0.018000000000000002, -0.026000000000000002, 1.022, 192.0, 0.0, 0.0, 0.0, 0.0, 0.0, 0.0, 0.0, 0.0, 0.0, 1.77216331466166E9, 0.0, 2026-02-26 19:35:14.661
219.0, 12017.638923840395, 3039.0325831213695, 13109.946323626797, 867.3817953326459, 12645.208852912052, -1608.69975193736, 5684.942684762798, 13123.513832511167, 0.018000000000000002, -0.026000000000000002, 1.022, 192.0, 0.0, 0.0, 0.0, 0.0, 0.0, 0.0, 0.0, 0.0, 0.0, 1.7721633146656048E9, 0.0, 2026-02-26 19:35:14.665
220.0, 12022.75747332066, 3043.2794145678777, 13108.940495126308, 871.3157023567799, 12644.515948833938, -1604.2964582796644, 5685.277960929628, 13122.865631921964, 0.018000000000000002, -0.026000000000000002, 1.022, 192.0, 0.0, 0.0, 0.0, 0.0, 0.0, 0.0, 0.0, 0.0, 0.0, 1.7721633146696303E9, 0.0, 2026-02-26 19:35:14.669
221.0, 12025.305572188565, 3043.100600612235, 13107.599390458989, 867.0912226547268, 12643.353658122262, -1611.5384234831838, 5685.434423140815, 13121.457472021279, 0.02, -0.022, 1.018, 192.0, 0.0, 160.0, 255.0, 80.0, 31.0, 208.0, 0.0, 0.0, 0.0, 1.7721633146746547E9, 0.0, 2026-02-26 19:35:14.674
222.0, 12027.652505356373, 3043.525283756886, 13105.543029969102, 863.7608127308861, 12641.07378018782, -1616.5228624967174, 5685.590885352002, 13118.93172489783, 0.02, -0.022, 1.018, 192.0, 0.0, 0.0, 0.0, 0.0, 0.0, 0.0, 0.0, 0.0, 0.0, 1.7721633146786628E9, 0.0, 2026-02-26 19:35:14.678
223.0, 12030.71469434675, 3040.753667444428, 13104.380739257425, 861.056251651794, 12639.26328888694, -1619.6074032315498, 5685.814402796555, 13117.769434186153, 0.02, -0.022, 1.018, 192.0, 0.0, 0.0, 0.0, 0.0, 0.0, 0.0, 0.0, 0.0, 0.0, 1.772163314682783E9, 0.0, 2026-02-26 19:35:14.682
224.0, 12031.89933680288, 3038.6526034656295, 13101.519715967146, 853.6354724926321, 12636.40226559666, -1627.7881417021922, 5685.412071396359, 13115.02016961815, 0.02, -0.022, 1.018, 192.0, 0.0, 0.0, 0.0, 0.0, 0.0, 0.0, 0.0, 0.0, 0.0, 1.7721633146857405E9, 0.0, 2026-02-26 19:35:14.685
225.0, 12032.972220536736, 3035.7021731975287, 13101.027977589129, 850.0144898908723, 12635.843471985278, -1632.727877226815, 5684.853277784977, 13114.30491379558, 0.02, -0.022, 1.018, 192.0, 0.0, 0.0, 0.0, 0.0, 0.0, 0.0, 0.0, 0.0, 0.0, 1.772163314689741E9, 0.0, 2026-02-26 19:35:14.689
226.0, 12033.821586826038, 3035.433952264065, 13099.619817688445, 847.1758183450482, 12634.480015573505, -1636.5947290175832, 5684.070966729041, 13112.740291683709, 0.02, -0.022, 1.018, 192.0, 0.0, 0.0, 0.0, 0.0, 0.0, 0.0, 0.0, 0.0, 0.0, 1.7721633146938694E9, 0.0, 2026-02-26 19:35:14.693
227.0, 12035.565022893552, 3033.757571429917, 13098.770451399143, 847.3546323006907, 12633.74240800648, -1636.3041563396641, 5683.4004143953825, 13111.868573649952, 0.02, -0.022, 1.018, 192.0, 0.0, 0.0, 0.0, 0.0, 0.0, 0.0, 0.0, 0.0, 0.0, 1.7721633146977868E9, 0.0, 2026-02-26 19:35:14.697
228.0, 12036.95083104978, 3033.4222952630876, 13098.5916374435, 849.5674550017661, 12633.496538817471, -1634.0689818941335, 5683.176896950829, 13111.779166672131, 0.02, -0.022, 1.018, 192.0, 0.0, 0.0, 0.0, 0.0, 0.0, 0.0, 0.0, 0.0, 0.0, 1.772163314701811E9, 0.0, 2026-02-26 19:35:14.701
229.0, 12037.442569427798, 3032.818798162794, 13100.223314788738, 850.2603590798807, 12634.994105695976, -1633.1078568825553, 5684.138021962407, 13113.41084401737, 0.02, -0.022, 1.018, 192.0, 0.0, 0.0, 0.0, 0.0, 0.0, 0.0, 0.0, 0.0, 0.0, 1.7721633147067916E9, 0.0, 2026-02-26 19:35:14.706
230.0, 12036.839072327504, 3030.851844650727, 13099.999797344184, 852.3167195697689, 12634.658829529148, -1630.8726824370244, 5684.450946384782, 13113.276733550638, 0.02, -0.022, 1.018, 192.0, 0.0, 0.0, 0.0, 0.0, 0.0, 0.0, 0.0, 0.0, 0.0, 1.7721633147108707E9, 0.0, 2026-02-26 19:35:14.710
231.0, 12036.61555488295, 3030.5389202283527, 13099.73157641072, 855.1330393711376, 12634.390608595682, -1627.631679491005, 5684.6968155737895, 13113.16497482836, 0.018000000000000002, -0.02, 1.012, 192.0, 0.0, 144.0, 255.0, 96.0, 31.0, 160.0, 0.0, 0.0, 0.0, 1.77216331471386E9, 0.0, 2026-02-26 19:35:14.713
232.0, 12034.983877537714, 3034.2046063190232, 13097.183477542816, 855.0436323933163, 12631.820157983322, -1627.922252168924, 5684.540353362603, 13110.460413749268, 0.018000000000000002, -0.02, 1.012, 192.0, 0.0, 0.0, 0.0, 0.0, 0.0, 0.0, 0.0, 0.0, 0.0, 1.772163314717886E9, 0.0, 2026-02-26 19:35:14.717
233.0, 12034.805063582071, 3033.5564057298193, 13099.530410710622, 859.1340016286375, 12634.50236731796, -1623.0942753665777, 5684.339187662505, 13112.852050405985, 0.018000000000000002, -0.02, 1.012, 192.0, 0.0, 0.0, 0.0, 0.0, 0.0, 0.0, 0.0, 0.0, 0.0, 1.7721633147218754E9, 0.0, 2026-02-26 19:35:14.721
234.0, 12033.262793214655, 3033.6458127076403, 13099.262189777159, 863.8725714531627, 12634.859995229244, -1616.634621218994, 5685.3450161629935, 13112.740291683709, 0.018000000000000002, -0.02, 1.012, 192.0, 0.0, 0.0, 0.0, 0.0, 0.0, 0.0, 0.0, 0.0, 0.0, 1.77216331472591E9, 0.0, 2026-02-26 19:35:14.725
235.0, 12032.368723436442, 3038.6973069545397, 13098.88221012142, 860.989196418428, 12634.681181273601, -1619.9650311428347, 5685.099146973986, 13112.270905050149, 0.018000000000000002, -0.02, 1.012, 192.0, 0.0, 0.0, 0.0, 0.0, 0.0, 0.0, 0.0, 0.0, 0.0, 1.7721633147299235E9, 0.0, 2026-02-26 19:35:14.729
236.0, 12032.055799014068, 3040.798370933339, 13099.105727565971, 854.9765771599505, 12634.8823469737, -1626.3352783125972, 5684.026263240131, 13112.717939939253, 0.018000000000000002, -0.02, 1.012, 192.0, 0.0, 0.0, 0.0, 0.0, 0.0, 0.0, 0.0, 0.0, 0.0, 1.7721633147349713E9, 0.0, 2026-02-26 19:35:14.734
237.0, 12029.61945886844, 3038.7420104434505, 13099.999797344184, 853.12138237016, 12635.284678373895, -1628.346935313575, 5683.333359162016, 13113.679064950833, 0.018000000000000002, -0.02, 1.012, 192.0, 0.0, 0.0, 0.0, 0.0, 0.0, 0.0, 0.0, 0.0, 0.0, 1.7721633147390935E9, 0.0, 2026-02-26 19:35:14.739
238.0, 12028.077188501024, 3041.133647100168, 13101.363253755959, 850.2156555909701, 12636.245803385473, -1631.6549934929603, 5683.333359162016, 13114.796652173598, 0.018000000000000002, -0.02, 1.012, 192.0, 0.0, 0.0, 0.0, 0.0, 0.0, 0.0, 0.0, 0.0, 0.0, 1.7721633147419915E9, 0.0, 2026-02-26 19:35:14.741
239.0, 12025.640848355395, 3039.4572662660203, 13101.385605500414, 851.2214840914588, 12636.335210363295, -1629.017487647234, 5683.780394051122, 13114.751948684687, 0.018000000000000002, -0.02, 1.012, 192.0, 0.0, 0.0, 0.0, 0.0, 0.0, 0.0, 0.0, 0.0, 0.0, 1.7721633147460256E9, 0.0, 2026-02-26 19:35:14.746
240.0, 12025.32792393302, 3037.557367987319, 13102.726710167732, 853.2554928368918, 12638.100998175263, -1624.8377114340917, 5684.249780684684, 13115.73542544072, 0.018000000000000002, -0.02, 1.012, 192.0, 0.0, 0.0, 0.0, 0.0, 0.0, 0.0, 0.0, 0.0, 0.0, 1.7721633147500262E9, 0.0, 2026-02-26 19:35:14.750
241.0, 12022.422197153832, 3038.473789509987, 13103.21844854575, 855.9377021715287, 12638.995067953476, -1622.535481755195, 5684.450946384782, 13116.562439985568, 0.018000000000000002, -0.02, 1.012, 192.0, 0.0, 144.0, 255.0, 96.0, 31.0, 160.0, 0.0, 0.0, 0.0, 1.772163314754046E9, 0.0, 2026-02-26 19:35:14.754
242.0, 12019.628229096917, 3041.2677575669004, 13104.201925301782, 861.2797690963471, 12639.956192965055, -1617.3945805304743, 5684.808574296067, 13117.903544652885, 0.018000000000000002, -0.02, 1.012, 192.0, 0.0, 0.0, 0.0, 0.0, 0.0, 0.0, 0.0, 0.0, 0.0, 1.7721633147580683E9, 0.0, 2026-02-26 19:35:14.758
243.0, 12018.398883151876, 3044.776981446383, 13105.632436946922, 861.9726731744615, 12641.923146477122, -1617.2381183192872, 5685.07679522953, 13119.26700106466, 0.018000000000000002, -0.02, 1.012, 192.0, 0.0, 0.0, 0.0, 0.0, 0.0, 0.0, 0.0, 0.0, 0.0, 1.7721633147620738E9, 0.0, 2026-02-26 19:35:14.762
244.0, 12016.230763939711, 3042.3629930452103, 13105.78889915811, 859.9386644290287, 12641.87844298821, -1620.6355834764938, 5684.674463829335, 13119.401111531392, 0.018000000000000002, -0.02, 1.012, 192.0, 0.0, 0.0, 0.0, 0.0, 0.0, 0.0, 0.0, 0.0, 0.0, 1.7721633147671206E9, 0.0, 2026-02-26 19:35:14.767
245.0, 12015.180231950311, 3035.344545286244, 13109.923971882341, 861.2350656074365, 12645.588832567792, -1619.1827200868988, 5684.473298129237, 13123.670294722355, 0.018000000000000002, -0.02, 1.012, 192.0, 0.0, 0.0, 0.0, 0.0, 0.0, 0.0, 0.0, 0.0, 0.0, 1.7721633147702067E9, 0.0, 2026-02-26 19:35:14.770
246.0, 12012.699188315772, 3038.2949755543445, 13111.6450562054, 863.4702400529671, 12646.92993723511, -1616.7463799412706, 5684.987388251709, 13125.21256508977, 0.018000000000000002, -0.02, 1.012, 192.0, 0.0, 0.0, 0.0, 0.0, 0.0, 0.0, 0.0, 0.0, 0.0, 1.7721633147741864E9, 0.0, 2026-02-26 19:35:14.774
247.0, 12012.788595293594, 3044.240539579456, 13113.92493413984, 864.0513854088051, 12649.634498314203, -1615.5840892295944, 5685.07679522953, 13127.514794768667, 0.018000000000000002, -0.02, 1.012, 192.0, 0.0, 0.0, 0.0, 0.0, 0.0, 0.0, 0.0, 0.0, 0.0, 1.7721633147781603E9, 0.0, 2026-02-26 19:35:14.778
248.0, 12013.079167971513, 3045.1346093576685, 13116.249515563193, 864.8113447202855, 12651.959079737555, -1615.1594060849436, 5684.763870807156, 13129.638210491921, 0.018000000000000002, -0.02, 1.012, 192.0, 0.0, 0.0, 0.0, 0.0, 0.0, 0.0, 0.0, 0.0, 0.0, 1.7721633147821746E9, 0.0, 2026-02-26 19:35:14.782
249.0, 12013.928534260815, 3050.7001937270397, 13118.954076642285, 870.5110395563888, 12655.133027450209, -1608.4315310038962, 5685.210905696262, 13132.4992337822, 0.018000000000000002, -0.02, 1.012, 192.0, 0.0, 0.0, 0.0, 0.0, 0.0, 0.0, 0.0, 0.0, 0.0, 1.772163314786186E9, 0.0, 2026-02-26 19:35:14.786
250.0, 12010.575772592518, 3052.4212780500984, 13119.110538853472, 875.3837198476458, 12655.602414083769, -1602.374208256508, 5685.233257440717, 13132.968620415762, 0.018000000000000002, -0.02, 1.012, 192.0, 0.0, 0.0, 0.0, 0.0, 0.0, 0.0, 0.0, 0.0, 0.0, 1.772163314790208E9, 0.0, 2026-02-26 19:35:14.790
251.0, 12007.200659179767, 3044.374650046188, 13120.228126076237, 867.9852924329392, 12655.535358850404, -1612.8348246615917, 5684.629760340424, 13133.795634960608, 0.016, -0.012, 1.01, 192.0, 0.0, 128.0, 255.0, 160.0, 31.0, 144.0, 0.0, 0.0, 0.0, 1.7721633147942517E9, 0.0, 2026-02-26 19:35:14.794
252.0, 12005.166650434334, 3040.17252208859, 13120.719864454255, 861.8385627077297, 12655.624765828225, -1620.9038044099575, 5684.003911495675, 13134.063855894072, 0.016, -0.012, 1.01, 192.0, 0.0, 0.0, 0.0, 0.0, 0.0, 0.0, 0.0, 0.0, 0.0, 1.772163314798257E9, 0.0, 2026-02-26 19:35:14.798
253.0, 12003.624380066918, 3038.4514377655314, 13121.792748188109, 865.1913243760258, 12656.563539095348, -1616.4558072633515, 5684.36153940696, 13135.36025707248, 0.016, -0.012, 1.01, 192.0, 0.0, 0.0, 0.0, 0.0, 0.0, 0.0, 0.0, 0.0, 0.0, 1.7721633148013577E9, 0.0, 2026-02-26 19:35:14.801
254.0, 12002.484441099698, 3034.942213886048, 13125.50313776769, 865.6607110095872, 12659.64807983018, -1615.9417171408793, 5684.495649873692, 13139.160053629883, 0.016, -0.012, 1.01, 192.0, 0.0, 0.0, 0.0, 0.0, 0.0, 0.0, 0.0, 0.0, 0.0, 1.77216331480632E9, 0.0, 2026-02-26 19:35:14.806
255.0, 12002.350330632966, 3035.6127662197073, 13128.40886454688, 862.3526528302018, 12661.860902531256, -1620.9708596433236, 5684.182725451318, 13142.021076920162, 0.016, -0.012, 1.01, 192.0, 0.0, 0.0, 0.0, 0.0, 0.0, 0.0, 0.0, 0.0, 0.0, 1.7721633148103368E9, 0.0, 2026-02-26 19:35:14.810
0.0, 12002.506792844153, 3040.440743022054, 13129.437044791825, 859.2234086064587, 12663.090248476297, -1625.307098067653, 5684.5180016181475, 13143.07160890956, 0.016, -0.012, 1.01, 192.0, 0.0, 0.0, 0.0, 0.0, 0.0, 0.0, 0.0, 0.0, 0.0, 1.7721633148143573E9, 0.0, 2026-02-26 19:35:14.814
1.0, 12001.880943999404, 3040.0160598774028, 13129.682913980832, 859.6257400066543, 12663.64904208768, -1624.3012695671644, 5683.758042306667, 13143.339829843026, 0.016, -0.012, 1.01, 192.0, 0.0, 0.0, 0.0, 0.0, 0.0, 0.0, 0.0, 0.0, 0.0, 1.772163314818372E9, 0.0, 2026-02-26 19:35:14.818
2.0, 12000.338673631988, 3034.003440618925, 13133.169786115861, 860.3856993181348, 12666.599472355781, -1622.5801852441057, 5683.445117884293, 13146.737295000232, 0.016, -0.012, 1.01, 192.0, 0.0, 0.0, 0.0, 0.0, 0.0, 0.0, 0.0, 0.0, 0.0, 1.7721633148223667E9, 0.0, 2026-02-26 19:35:14.822
3.0, 11996.807098008048, 3031.5894522177523, 13133.058027393583, 860.989196418428, 12666.063030488853, -1622.4907782662845, 5684.450946384782, 13146.491425811224, 0.016, -0.012, 1.01, 192.0, 0.0, 0.0, 0.0, 0.0, 0.0, 0.0, 0.0, 0.0, 0.0, 1.7721633148263829E9, 0.0, 2026-02-26 19:35:14.826
4.0, 11995.622455551918, 3035.2551383084224, 13133.46035879378, 862.4867632969336, 12666.867693289245, -1621.5520049991615, 5685.188553951807, 13147.184329889338, 0.016, -0.012, 1.01, 192.0, 0.0, 0.0, 0.0, 0.0, 0.0, 0.0, 0.0, 0.0, 0.0, 1.7721633148294053E9, 0.0, 2026-02-26 19:35:14.829
5.0, 11995.823621252015, 3035.3892487751546, 13135.427312305846, 863.0679086527716, 12669.326385179327, -1620.9708596433236, 5686.015568496653, 13149.441856079324, 0.016, -0.012, 1.006, 192.0, 0.0, 128.0, 255.0, 160.0, 31.0, 112.0, 0.0, 0.0, 0.0, 1.772163314833448E9, 0.0, 2026-02-26 19:35:14.833
6.0, 11994.840144495982, 3031.3212312842884, 13139.383571074435, 861.9503214300063, 12672.947367781087, -1621.6414119769827, 5684.853277784977, 13153.107542169993, 0.016, -0.012, 1.006, 192.0, 0.0, 0.0, 0.0, 0.0, 0.0, 0.0, 0.0, 0.0, 0.0, 1.7721633148384612E9, 0.0, 2026-02-26 19:35:14.838
7.0, 11993.007301450647, 3031.07536209528, 13140.992896675218, 857.4352690500342, 12674.400231170683, -1625.1059323675554, 5683.64628358439, 13154.336888115036, 0.016, -0.012, 1.006, 192.0, 0.0, 0.0, 0.0, 0.0, 0.0, 0.0, 0.0, 0.0, 0.0, 1.7721633148424683E9, 0.0, 2026-02-26 19:35:14.842
8.0, 11993.364929361931, 3037.2667953094, 13142.915146698375, 854.0601556372828, 12676.657757360668, -1628.0787143801113, 5683.735690562212, 13156.281489882647, 0.016, -0.012, 1.006, 192.0, 0.0, 0.0, 0.0, 0.0, 0.0, 0.0, 0.0, 0.0, 0.0, 1.7721633148465672E9, 0.0, 2026-02-26 19:35:14.846
9.0, 11994.124888673412, 3039.4125627771095, 13145.351486844003, 854.6413009931208, 12679.094097506297, -1628.2575283357537, 5683.445117884293, 13158.829588750552, 0.016, -0.012, 1.006, 192.0, 0.0, 0.0, 0.0, 0.0, 0.0, 0.0, 0.0, 0.0, 0.0, 1.7721633148505204E9, 0.0, 2026-02-26 19:35:14.850
10.0, 11996.1812491633, 3088.720511045517, 13148.79365549012, 853.3672515591684, 12682.357452196771, -1630.4256475479183, 5683.020434739642, 13162.22705390776, 0.016, -0.012, 1.006, 192.0, 0.0, 0.0, 0.0, 0.0, 0.0, 0.0, 0.0, 0.0, 0.0, 1.7721633148535268E9, 0.0, 2026-02-26 19:35:14.853
11.0, 11996.203600907756, 3176.004073143491, 13148.145454900916, 852.6296439921432, 12681.46338241856, -1631.3197173261306, 5683.154545206374, 13161.847074252019, 0.016, -0.012, 1.006, 192.0, 0.0, 0.0, 0.0, 0.0, 0.0, 0.0, 0.0, 0.0, 0.0, 1.7721633148575444E9, 0.0, 2026-02-26 19:35:14.857
12.0, 11994.169592162323, 3134.0274970564246, 13148.637193278933, 850.6626904800762, 12681.55278939638, -1633.9348714274015, 5683.825097540033, 13162.450571352312, 0.016, -0.012, 1.006, 192.0, 0.0, 0.0, 0.0, 0.0, 0.0, 0.0, 0.0, 0.0, 0.0, 1.7721633148615963E9, 0.0, 2026-02-26 19:35:14.861
13.0, 11998.170554419823, 3221.132245198756, 13148.100751412005, 849.9474346575064, 12681.664548118657, -1634.6054237610608, 5683.176896950829, 13161.914129485385, 0.016, -0.012, 1.006, 192.0, 0.0, 0.0, 0.0, 0.0, 0.0, 0.0, 0.0, 0.0, 0.0, 1.7721633148655918E9, 0.0, 2026-02-26 19:35:14.865
14.0, 12002.149164932867, 3278.7326906600824, 13151.006478191195, 849.9474346575064, 12684.346757453295, -1634.2701475942313, 5682.6404550839015, 13164.395173119925, 0.016, -0.012, 1.006, 192.0, 0.0, 0.0, 0.0, 0.0, 0.0, 0.0, 0.0, 0.0, 0.0, 1.7721633148706217E9, 0.0, 2026-02-26 19:35:14.870
15.0, 11999.891638742882, 3268.786164377471, 13150.246518879714, 849.6121584906767, 12683.162114997163, -1635.0077551612562, 5682.998082995186, 13163.344641130525, 0.014, -0.016, 1.008, 192.0, 0.0, 112.0, 255.0, 128.0, 31.0, 128.0, 0.0, 0.0, 0.0, 1.7721633148746293E9, 0.0, 2026-02-26 19:35:14.874
16.0, 11991.666196783328, 3126.494959174986, 13146.960812444784, 852.2943678253137, 12679.563484139859, -1631.6996969818708, 5683.489821373203, 13160.215396906782, 0.014, -0.016, 1.008, 192.0, 0.0, 0.0, 0.0, 0.0, 0.0, 0.0, 0.0, 0.0, 0.0, 1.7721633148786516E9, 0.0, 2026-02-26 19:35:14.878
17.0, 11990.749775260661, 3103.8079385528495, 13146.044390922118, 854.507190526389, 12678.512952150459, -1628.793970202681, 5683.489821373203, 13159.433085850846, 0.014, -0.016, 1.008, 192.0, 0.0, 0.0, 0.0, 0.0, 0.0, 0.0, 0.0, 0.0, 0.0, 1.7721633148816566E9, 0.0, 2026-02-26 19:35:14.881
18.0, 11992.113231672434, 3091.2239064245114, 13146.89375721142, 855.0883358822269, 12679.116449250752, -1627.2293480908095, 5683.378062650927, 13160.349507373514, 0.014, -0.016, 1.008, 192.0, 0.0, 0.0, 0.0, 0.0, 0.0, 0.0, 0.0, 0.0, 0.0, 1.7721633148856795E9, 0.0, 2026-02-26 19:35:14.885
19.0, 11993.029653195103, 3117.71072360405, 13147.720771756265, 856.4741440384561, 12680.211684729062, -1625.441208534385, 5683.780394051122, 13161.444742851823, 0.014, -0.016, 1.008, 192.0, 0.0, 0.0, 0.0, 0.0, 0.0, 0.0, 0.0, 0.0, 0.0, 1.772163314889707E9, 0.0, 2026-02-26 19:35:14.889
20.0, 11991.219161894222, 3101.595115851774, 13147.02786767815, 856.831771949741, 12680.390498684705, -1624.6812492229044, 5683.825097540033, 13160.975356218261, 0.014, -0.016, 1.008, 192.0, 0.0, 0.0, 0.0, 0.0, 0.0, 0.0, 0.0, 0.0, 0.0, 1.7721633148937268E9, 0.0, 2026-02-26 19:35:14.893
21.0, 11990.012167693636, 3081.210324908534, 13147.944289200817, 857.412917305579, 12680.904588807178, -1624.3236213116195, 5683.4004143953825, 13161.645908551922, 0.014, -0.016, 1.008, 192.0, 0.0, 0.0, 0.0, 0.0, 0.0, 0.0, 0.0, 0.0, 0.0, 1.7721633148987508E9, 0.0, 2026-02-26 19:35:14.898
22.0, 11994.750737518161, 3164.224703815544, 13150.559443302089, 856.2059231049924, 12683.36328069726, -1626.4470370348738, 5683.780394051122, 13163.992841719728, 0.014, -0.016, 1.008, 192.0, 0.0, 0.0, 0.0, 0.0, 0.0, 0.0, 0.0, 0.0, 0.0, 1.772163314902778E9, 0.0, 2026-02-26 19:35:14.902
23.0, 11997.61176080844, 3259.4431351951525, 13151.051181680106, 858.4187458060677, 12684.570274897847, -1622.7589991997481, 5684.182725451318, 13164.663394053388, 0.014, -0.016, 1.008, 192.0, 0.0, 0.0, 0.0, 0.0, 0.0, 0.0, 0.0, 0.0, 0.0, 1.7721633149057877E9, 0.0, 2026-02-26 19:35:14.905
24.0, 11997.500002086164, 3258.7278793725827, 13150.961774702284, 862.21854236347, 12684.302053964384, -1618.8027404311588, 5683.690987073301, 13164.819856264576, 0.014, -0.016, 1.008, 192.0, 0.0, 0.0, 0.0, 0.0, 0.0, 0.0, 0.0, 0.0, 0.0, 1.7721633149098032E9, 0.0, 2026-02-26 19:35:14.909
25.0, 11994.907199729349, 3163.4870962485193, 13151.542920058122, 863.2467226084141, 12684.190295242108, -1618.3333537975973, 5683.825097540033, 13165.333946387047, 0.014, -0.016, 1.008, 192.0, 0.0, 0.0, 0.0, 0.0, 0.0, 0.0, 0.0, 0.0, 0.0, 1.7721633149138317E9, 0.0, 2026-02-26 19:35:14.913
26.0, 11993.923722973315, 3121.7116858615504, 13152.392286347424, 863.6267022641542, 12684.905551064678, -1617.7745601862146, 5683.60158009548, 13166.049202209617, 0.018000000000000002, -0.024, 1.022, 192.0, 0.0, 144.0, 255.0, 64.0, 31.0, 240.0, 0.0, 0.0, 0.0, 1.7721633149178677E9, 0.0, 2026-02-26 19:35:14.917
27.0, 11995.868324740926, 3184.743605225516, 13152.302879369603, 863.0455569083163, 12685.531399909425, -1618.1992433308653, 5683.065138228552, 13165.915091742885, 0.018000000000000002, -0.024, 1.022, 192.0, 0.0, 0.0, 0.0, 0.0, 0.0, 0.0, 0.0, 0.0, 0.0, 1.7721633149218636E9, 0.0, 2026-02-26 19:35:14.921
28.0, 11995.398938107364, 3206.4247973471643, 13151.073533424562, 864.7442894869197, 12684.458516175571, -1616.858138663547, 5683.467469628748, 13164.931614986852, 0.018000000000000002, -0.024, 1.022, 192.0, 0.0, 0.0, 0.0, 0.0, 0.0, 0.0, 0.0, 0.0, 0.0, 1.7721633149259164E9, 0.0, 2026-02-26 19:35:14.925
29.0, 11994.37075786242, 3175.6017417432954, 13151.006478191195, 867.5606092882883, 12683.564446397359, -1613.8183014176252, 5684.272132429139, 13164.596338820022, 0.018000000000000002, -0.024, 1.022, 192.0, 0.0, 0.0, 0.0, 0.0, 0.0, 0.0, 0.0, 0.0, 0.0, 1.7721633149547365E9, 0.0, 2026-02-26 19:35:14.954
30.0, 11994.907199729349, 3129.1548167651677, 13151.788789247132, 865.8171732207744, 12684.70438536458, -1615.2264613183095, 5684.629760340424, 13165.401001620414, 0.018000000000000002, -0.024, 1.022, 192.0, 0.0, 0.0, 0.0, 0.0, 0.0, 0.0, 0.0, 0.0, 0.0, 1.7721633149547997E9, 0.0, 2026-02-26 19:35:14.954
31.0, 11991.42032759432, 3067.754574746439, 13152.884024725441, 864.4984202979113, 12685.866676076255, -1617.4616357638404, 5684.450946384782, 13166.630347565455, 0.018000000000000002, -0.024, 1.022, 192.0, 0.0, 0.0, 0.0, 0.0, 0.0, 0.0, 0.0, 0.0, 0.0, 1.7721633149548547E9, 0.0, 2026-02-26 19:35:14.954
32.0, 11994.884847984893, 3134.4745319455305, 13155.70034452681, 865.2136761204811, 12689.174734255641, -1617.0146008747342, 5684.741519062701, 13169.558426089101, 0.018000000000000002, -0.024, 1.022, 192.0, 0.0, 0.0, 0.0, 0.0, 0.0, 0.0, 0.0, 0.0, 0.0, 1.772163314954904E9, 0.0, 2026-02-26 19:35:14.954
33.0, 11994.147240417868, 3139.0342878144133, 13155.70034452681, 867.9852924329392, 12688.727699366535, -1614.3323915400972, 5685.322664418539, 13169.558426089101, 0.018000000000000002, -0.024, 1.022, 192.0, 0.0, 0.0, 0.0, 0.0, 0.0, 0.0, 0.0, 0.0, 0.0, 1.7721633149549384E9, 0.0, 2026-02-26 19:35:14.954
34.0, 11994.236647395688, 3121.9575550505588, 13156.37089686047, 865.4818970539447, 12689.331196466828, -1617.3498770415638, 5684.629760340424, 13169.916054000385, 0.018000000000000002, -0.024, 1.022, 192.0, 0.0, 0.0, 0.0, 0.0, 0.0, 0.0, 0.0, 0.0, 0.0, 1.7721633149550009E9, 0.0, 2026-02-26 19:35:14.955
35.0, 11999.221086409223, 3269.1214405443, 13156.348545116014, 865.5936557762213, 12689.822934844844, -1616.4111037744408, 5683.869801028944, 13170.005460978206, 0.018000000000000002, -0.024, 1.022, 192.0, 0.0, 0.0, 0.0, 0.0, 0.0, 0.0, 0.0, 0.0, 0.0, 1.7721633149572675E9, 0.0, 2026-02-26 19:35:14.957
36.0, 11995.957731718747, 3243.461637909608, 13154.761571259687, 864.9007516981068, 12688.101850521785, -1617.282821808198, 5683.914504517854, 13168.306728399602, 0.018000000000000002, -0.026000000000000002, 1.022, 192.0, 0.0, 144.0, 255.0, 48.0, 31.0, 240.0, 0.0, 0.0, 0.0, 1.7721633149580462E9, 0.0, 2026-02-26 19:35:14.958
37.0, 11998.908161986848, 3337.227205899621, 13153.80044624811, 865.8171732207744, 12687.587760399314, -1616.5899177300832, 5684.249780684684, 13167.524417343668, 0.018000000000000002, -0.026000000000000002, 1.022, 192.0, 0.0, 0.0, 0.0, 0.0, 0.0, 0.0, 0.0, 0.0, 0.0, 1.7721633149620514E9, 0.0, 2026-02-26 19:35:14.962
38.0, 12002.730310288705, 3368.162020225766, 13153.666335781376, 863.1349638861375, 12687.721870866046, -1619.696810209371, 5684.115670217952, 13167.32325164357, 0.018000000000000002, -0.026000000000000002, 1.022, 192.0, 0.0, 0.0, 0.0, 0.0, 0.0, 0.0, 0.0, 0.0, 0.0, 1.772163314965057E9, 0.0, 2026-02-26 19:35:14.965
39.0, 12003.1326416889, 3377.929732552735, 13152.392286347424, 864.4984202979113, 12686.917208065655, -1617.8639671640358, 5683.512173117659, 13166.138609187437, 0.018000000000000002, -0.026000000000000002, 1.022, 192.0, 0.0, 0.0, 0.0, 0.0, 0.0, 0.0, 0.0, 0.0, 0.0, 1.7721633149691489E9, 0.0, 2026-02-26 19:35:14.969
40.0, 11998.148202675367, 3288.589809964873, 13151.431161335846, 864.0960888977157, 12685.620806887247, -1618.758036942248, 5682.729862061723, 13165.155132431404, 0.018000000000000002, -0.026000000000000002, 1.022, 192.0, 0.0, 0.0, 0.0, 0.0, 0.0, 0.0, 0.0, 0.0, 0.0, 1.772163314974183E9, 0.0, 2026-02-26 19:35:14.974
41.0, 11992.716728772728, 3198.3558175987982, 13149.732428757243, 860.3856993181348, 12683.586798141814, -1622.5578334996503, 5681.74638530569, 13163.232882408249, 0.018000000000000002, -0.026000000000000002, 1.022, 192.0, 0.0, 0.0, 0.0, 0.0, 0.0, 0.0, 0.0, 0.0, 0.0, 1.7721633149781897E9, 0.0, 2026-02-26 19:35:14.978
42.0, 11991.956769461247, 3199.6969222661164, 13148.74895200121, 861.570341774266, 12682.715080108057, -1619.562699742639, 5681.053481227575, 13162.204702163304, 0.018000000000000002, -0.026000000000000002, 1.022, 192.0, 0.0, 0.0, 0.0, 0.0, 0.0, 0.0, 0.0, 0.0, 0.0, 1.7721633149821455E9, 0.0, 2026-02-26 19:35:14.982
43.0, 11991.241513638677, 3219.4111608756975, 13148.950117701306, 862.6879289970313, 12682.60332138578, -1617.953374141857, 5681.925199261332, 13162.562330074588, 0.018000000000000002, -0.026000000000000002, 1.022, 192.0, 0.0, 0.0, 0.0, 0.0, 0.0, 0.0, 0.0, 0.0, 0.0, 1.7721633149861748E9, 0.0, 2026-02-26 19:35:14.986
44.0, 11991.397975849864, 3252.8270188363817, 13149.061876423584, 857.3682138166683, 12683.028004530432, -1624.6812492229044, 5681.366405649949, 13162.808199263598, 0.018000000000000002, -0.026000000000000002, 1.022, 192.0, 0.0, 0.0, 0.0, 0.0, 0.0, 0.0, 0.0, 0.0, 0.0, 1.7721633149892256E9, 0.0, 2026-02-26 19:35:14.989
45.0, 11993.633150295396, 3330.298165118476, 13148.972469445762, 852.6966992255092, 12682.625673130236, -1630.8726824370244, 5681.299350416583, 13162.27175739667, 0.018000000000000002, -0.026000000000000002, 1.022, 192.0, 0.0, 0.0, 0.0, 0.0, 0.0, 0.0, 0.0, 0.0, 0.0, 1.7721633149932523E9, 0.0, 2026-02-26 19:35:14.993
46.0, 11994.907199729349, 3323.8608627153476, 13148.950117701306, 859.8269057067521, 12682.580969641325, -1621.8202259326251, 5681.947551005787, 13162.405867863401, 0.018000000000000002, -0.022, 1.018, 192.0, 0.0, 144.0, 255.0, 80.0, 31.0, 208.0, 0.0, 0.0, 0.0, 1.7721633149972534E9, 0.0, 2026-02-26 19:35:14.997
47.0, 11987.531124059096, 3138.274328502933, 13148.547786301111, 862.3303010857464, 12681.910417307667, -1619.406237531452, 5681.925199261332, 13162.22705390776, 0.018000000000000002, -0.022, 1.018, 192.0, 0.0, 0.0, 0.0, 0.0, 0.0, 0.0, 0.0, 0.0, 0.0, 1.7721633150022786E9, 0.0, 2026-02-26 19:35:15.002
48.0, 11985.742984502673, 3157.72034617905, 13149.218338634771, 859.7151469844755, 12682.245693474495, -1622.3343160550971, 5682.573399850536, 13162.383516118947, 0.018000000000000002, -0.022, 1.018, 192.0, 0.0, 0.0, 0.0, 0.0, 0.0, 0.0, 0.0, 0.0, 0.0, 1.7721633150063412E9, 0.0, 2026-02-26 19:35:15.006
49.0, 11987.106440914446, 3193.9301721966476, 13149.955946201795, 862.3973563191124, 12683.407984186171, -1618.534519497695, 5682.059309728063, 13163.389344619436, 0.018000000000000002, -0.022, 1.018, 192.0, 0.0, 0.0, 0.0, 0.0, 0.0, 0.0, 0.0, 0.0, 0.0, 1.7721633150103803E9, 0.0, 2026-02-26 19:35:15.010
50.0, 11986.70410951425, 3190.1303756392454, 13150.358277601992, 861.1233068851599, 12683.855019075278, -1619.6521067204603, 5681.656978327868, 13163.724620786264, 0.018000000000000002, -0.022, 1.018, 192.0, 0.0, 0.0, 0.0, 0.0, 0.0, 0.0, 0.0, 0.0, 0.0, 1.772163315014367E9, 0.0, 2026-02-26 19:35:15.014
51.0, 11987.262903125633, 3185.9282476816475, 13150.782960746643, 866.443022065523, 12684.883199320222, -1613.3936182729744, 5682.282827172617, 13164.998670220217, 0.018000000000000002, -0.022, 1.018, 192.0, 0.0, 0.0, 0.0, 0.0, 0.0, 0.0, 0.0, 0.0, 0.0, 1.7721633150173829E9, 0.0, 2026-02-26 19:35:15.017
52.0, 11988.000510692658, 3224.775579544971, 13151.6546787804, 862.8890946971292, 12686.22430398754, -1617.3722287860191, 5681.902847516876, 13165.356298131503, 0.018000000000000002, -0.022, 1.018, 192.0, 0.0, 0.0, 0.0, 0.0, 0.0, 0.0, 0.0, 0.0, 0.0, 1.772163315023354E9, 0.0, 2026-02-26 19:35:15.023
53.0, 11988.313435115033, 3241.092352997345, 13153.308707870092, 862.1291353856487, 12686.626635387736, -1618.6462782199715, 5681.969902750243, 13166.607995821, 0.018000000000000002, -0.022, 1.018, 192.0, 0.0, 0.0, 0.0, 0.0, 0.0, 0.0, 0.0, 0.0, 0.0, 1.772163315026447E9, 0.0, 2026-02-26 19:35:15.026
54.0, 11985.765336247128, 3250.1224577572893, 13151.274699124659, 866.0406906653275, 12684.234998731017, -1615.2935165516756, 5682.394585894894, 13164.641042308933, 0.018000000000000002, -0.022, 1.018, 192.0, 0.0, 0.0, 0.0, 0.0, 0.0, 0.0, 0.0, 0.0, 0.0, 1.7721633150294635E9, 0.0, 2026-02-26 19:35:15.029
55.0, 11980.557379789041, 3144.3092995058655, 13149.531263057144, 866.8006499768079, 12683.028004530432, -1615.695847951871, 5682.439289383804, 13162.964661474785, 0.018000000000000002, -0.022, 1.018, 192.0, 0.0, 0.0, 0.0, 0.0, 0.0, 0.0, 0.0, 0.0, 0.0, 1.7721633150344436E9, 0.0, 2026-02-26 19:35:15.034
56.0, 11982.904312956849, 3193.751358241005, 13152.54874855861, 866.0853941542381, 12686.045490031898, -1616.6122694745386, 5682.6404550839015, 13165.98214697625, 0.016, -0.024, 1.02, 192.0, 0.0, 128.0, 255.0, 64.0, 31.0, 224.0, 0.0, 0.0, 0.0, 1.7721633150384264E9, 0.0, 2026-02-26 19:35:15.038
57.0, 11982.837257723482, 3188.6104570162843, 13152.816969492074, 866.4206703210676, 12687.498353421493, -1615.1594060849436, 5683.355710906471, 13166.853865010007, 0.016, -0.024, 1.02, 192.0, 0.0, 0.0, 0.0, 0.0, 0.0, 0.0, 0.0, 0.0, 0.0, 1.7721633150424516E9, 0.0, 2026-02-26 19:35:15.042
58.0, 11979.931530944292, 3200.009846688491, 13151.297050869114, 862.0620801522828, 12684.74908885349, -1620.3897142874855, 5683.534524862114, 13164.350469631014, 0.016, -0.024, 1.02, 192.0, 0.0, 0.0, 0.0, 0.0, 0.0, 0.0, 0.0, 0.0, 0.0, 1.7721633150455415E9, 0.0, 2026-02-26 19:35:15.045
59.0, 11981.89848445636, 3237.225501206577, 13151.878196224952, 861.6821004965426, 12684.70438536458, -1621.4849497657956, 5683.065138228552, 13164.752801031209, 0.016, -0.024, 1.02, 192.0, 0.0, 0.0, 0.0, 0.0, 0.0, 0.0, 0.0, 0.0, 0.0, 1.77216331504951E9, 0.0, 2026-02-26 19:35:15.049
60.0, 11979.015109421625, 3176.4511080325974, 13152.526396814155, 864.2301993644476, 12685.531399909425, -1619.4509410203625, 5683.802745795578, 13165.669222553877, 0.016, -0.024, 1.02, 192.0, 0.0, 0.0, 0.0, 0.0, 0.0, 0.0, 0.0, 0.0, 0.0, 1.7721633150534916E9, 0.0, 2026-02-26 19:35:15.053
61.0, 11980.736193744684, 3262.1476962742445, 13152.392286347424, 866.375966832157, 12685.911379565166, -1616.8357869190918, 5683.780394051122, 13165.758629531698, 0.016, -0.024, 1.02, 192.0, 0.0, 0.0, 0.0, 0.0, 0.0, 0.0, 0.0, 0.0, 0.0, 1.772163315057534E9, 0.0, 2026-02-26 19:35:15.057
62.0, 11978.076336154501, 3193.818413474371, 13152.928728214352, 868.4323273220454, 12686.470173176549, -1614.019467117723, 5683.690987073301, 13166.362126631991, 0.016, -0.024, 1.02, 192.0, 0.0, 0.0, 0.0, 0.0, 0.0, 0.0, 0.0, 0.0, 0.0, 1.7721633150627139E9, 0.0, 2026-02-26 19:35:15.062
63.0, 11980.22210362221, 3237.6725360956834, 13152.973431703262, 870.376929089657, 12686.336062709817, -1611.9407548833794, 5684.160373706863, 13166.540940587634, 0.016, -0.024, 1.02, 192.0, 0.0, 0.0, 0.0, 0.0, 0.0, 0.0, 0.0, 0.0, 0.0, 1.7721633150665865E9, 0.0, 2026-02-26 19:35:15.066
64.0, 11980.46797281122, 3262.4159172077084, 13152.638155536433, 870.3992808341123, 12685.866676076255, -1612.276031050209, 5683.914504517854, 13166.27271965417, 0.016, -0.024, 1.02, 192.0, 0.0, 0.0, 0.0, 0.0, 0.0, 0.0, 0.0, 0.0, 0.0, 1.7721633150706787E9, 0.0, 2026-02-26 19:35:15.070
65.0, 11979.484496055185, 3213.5326520839517, 13154.448646837312, 870.958074445495, 12687.878333077233, -1612.2313275612985, 5683.914504517854, 13167.971452232774, 0.016, -0.024, 1.02, 192.0, 0.0, 0.0, 0.0, 0.0, 0.0, 0.0, 0.0, 0.0, 0.0, 1.7721633150736494E9, 0.0, 2026-02-26 19:35:15.073
66.0, 11974.343594830465, 3133.1334272782124, 13152.861672980986, 869.9522459450062, 12686.60428364328, -1612.924231639413, 5683.22160043974, 13166.518588843179, 0.014, -0.022, 1.016, 192.0, 0.0, 112.0, 255.0, 80.0, 31.0, 192.0, 0.0, 0.0, 0.0, 1.7721633150776567E9, 0.0, 2026-02-26 19:35:15.077
67.0, 11980.333862344487, 3265.4110509647194, 13153.867501481474, 867.605312777199, 12687.096022021296, -1615.1370543404882, 5682.305178917072, 13167.546769088123, 0.014, -0.022, 1.016, 192.0, 0.0, 0.0, 0.0, 0.0, 0.0, 0.0, 0.0, 0.0, 0.0, 1.7721633150817366E9, 0.0, 2026-02-26 19:35:15.081
68.0, 11981.2279321227, 3255.196303748644, 13154.180425903849, 868.5664377887772, 12687.99009179951, -1614.1535775844548, 5683.623931839935, 13167.479713854756, 0.014, -0.022, 1.016, 192.0, 0.0, 0.0, 0.0, 0.0, 0.0, 0.0, 0.0, 0.0, 0.0, 1.7721633150856733E9, 0.0, 2026-02-26 19:35:15.085
69.0, 11981.853780967449, 3277.525696459496, 13155.298013126614, 872.2768273683581, 12688.392423199704, -1610.4208362604186, 5684.003911495675, 13168.664356310888, 0.014, -0.022, 1.016, 192.0, 0.0, 0.0, 0.0, 0.0, 0.0, 0.0, 0.0, 0.0, 0.0, 1.7721633150896769E9, 0.0, 2026-02-26 19:35:15.089
70.0, 11979.260978610633, 3233.7609808160046, 13154.023963692662, 871.2933506123246, 12686.60428364328, -1611.0690368496225, 5683.489821373203, 13167.278548154658, 0.014, -0.022, 1.016, 192.0, 0.0, 0.0, 0.0, 0.0, 0.0, 0.0, 0.0, 0.0, 0.0, 1.7721633150946724E9, 0.0, 2026-02-26 19:35:15.094
71.0, 11981.809077478538, 3276.7880888924706, 13151.855844480497, 874.087318669238, 12685.352585953784, -1608.3644757705304, 5683.758042306667, 13165.08807719804, 0.014, -0.022, 1.016, 192.0, 0.0, 0.0, 0.0, 0.0, 0.0, 0.0, 0.0, 0.0, 0.0, 1.77216331509879E9, 0.0, 2026-02-26 19:35:15.098
72.0, 11977.964577432225, 3147.3491367517877, 13152.03465843614, 873.5508768023107, 12685.93373130962, -1609.1691385709214, 5683.668635328846, 13165.535112087146, 0.014, -0.022, 1.016, 192.0, 0.0, 0.0, 0.0, 0.0, 0.0, 0.0, 0.0, 0.0, 0.0, 1.7721633151018014E9, 0.0, 2026-02-26 19:35:15.101
73.0, 11975.617644264417, 3141.5823866823184, 13151.967603202773, 868.4546790665006, 12685.240827231506, -1615.1594060849436, 5682.685158572813, 13165.132780686949, 0.014, -0.022, 1.016, 192.0, 0.0, 0.0, 0.0, 0.0, 0.0, 0.0, 0.0, 0.0, 0.0, 1.7721633151057963E9, 0.0, 2026-02-26 19:35:15.105
74.0, 11976.243493109167, 3194.4442623191194, 13151.40880959139, 867.2700366103693, 12684.458516175571, -1617.282821808198, 5682.931027761821, 13164.573987075566, 0.014, -0.022, 1.016, 192.0, 0.0, 0.0, 0.0, 0.0, 0.0, 0.0, 0.0, 0.0, 0.0, 1.7721633151107545E9, 0.0, 2026-02-26 19:35:15.110
75.0, 11977.2269698652, 3215.8348817628485, 13150.023001435162, 866.1971528765146, 12683.229170230528, -1618.6462782199715, 5683.60158009548, 13162.964661474785, 0.014, -0.022, 1.016, 192.0, 0.0, 0.0, 0.0, 0.0, 0.0, 0.0, 0.0, 0.0, 0.0, 1.7721633151148367E9, 0.0, 2026-02-26 19:35:15.114
76.0, 11979.573903033008, 3247.037917022457, 13149.821835735063, 863.4031848196012, 12683.028004530432, -1620.076789865111, 5683.132193461918, 13162.897606241419, 0.018000000000000002, -0.02, 1.018, 192.0, 0.0, 144.0, 255.0, 96.0, 31.0, 208.0, 0.0, 0.0, 0.0, 1.7721633151178668E9, 0.0, 2026-02-26 19:35:15.117
77.0, 11982.457278067743, 3312.126196876311, 13149.039524679129, 858.8434289507186, 12682.536266152414, -1624.0554003781558, 5682.3498824059825, 13161.958832974296, 0.018000000000000002, -0.02, 1.018, 192.0, 0.0, 0.0, 0.0, 0.0, 0.0, 0.0, 0.0, 0.0, 0.0, 1.772163315121849E9, 0.0, 2026-02-26 19:35:15.121
78.0, 11982.770202490115, 3300.8832694152916, 13147.430199078346, 857.8152487057745, 12681.061051018365, -1624.6812492229044, 5681.656978327868, 13160.237748651238, 0.018000000000000002, -0.02, 1.018, 192.0, 0.0, 0.0, 0.0, 0.0, 0.0, 0.0, 0.0, 0.0, 0.0, 1.772163315125846E9, 0.0, 2026-02-26 19:35:15.125
79.0, 11977.025804165103, 3149.1819797971225, 13146.916108955875, 859.8269057067521, 12679.787001584411, -1622.8931096664799, 5681.83579228351, 13160.215396906782, 0.018000000000000002, -0.02, 1.018, 192.0, 0.0, 0.0, 0.0, 0.0, 0.0, 0.0, 0.0, 0.0, 0.0, 1.772163315129874E9, 0.0, 2026-02-26 19:35:15.129
80.0, 11979.663310010828, 3171.399613785698, 13147.497254311713, 863.7608127308861, 12680.949292296087, -1618.1321880974995, 5681.679330072324, 13160.908300984896, 0.018000000000000002, -0.02, 1.018, 192.0, 0.0, 0.0, 0.0, 0.0, 0.0, 0.0, 0.0, 0.0, 0.0, 1.772163315133896E9, 0.0, 2026-02-26 19:35:15.133
81.0, 11974.56711227502, 3105.7748920649165, 13145.642059521922, 862.0844318967381, 12679.496428906492, -1619.4732927648179, 5681.053481227575, 13159.276623639658, 0.018000000000000002, -0.02, 1.018, 192.0, 0.0, 0.0, 0.0, 0.0, 0.0, 0.0, 0.0, 0.0, 0.0, 1.772163315138944E9, 0.0, 2026-02-26 19:35:15.138
82.0, 11979.462144310732, 3192.4102535736865, 13149.732428757243, 862.1961906190146, 12682.692728363601, -1619.9873828872899, 5681.276998672128, 13162.875254496963, 0.018000000000000002, -0.02, 1.018, 192.0, 0.0, 0.0, 0.0, 0.0, 0.0, 0.0, 0.0, 0.0, 0.0, 1.77216331514193E9, 0.0, 2026-02-26 19:35:15.141
83.0, 11979.059812910535, 3181.2790848349437, 13149.844187479519, 862.5314667858443, 12682.670376619146, -1620.1438450984772, 5681.545219605591, 13163.076420197061, 0.018000000000000002, -0.02, 1.018, 192.0, 0.0, 0.0, 0.0, 0.0, 0.0, 0.0, 0.0, 0.0, 0.0, 1.772163315145007E9, 0.0, 2026-02-26 19:35:15.145
84.0, 11981.071469911512, 3187.1799453711446, 13149.777132246154, 863.3137778417799, 12683.117411508252, -1619.27212706472, 5681.83579228351, 13163.434048108345, 0.018000000000000002, -0.02, 1.018, 192.0, 0.0, 0.0, 0.0, 0.0, 0.0, 0.0, 0.0, 0.0, 0.0, 1.7721633151499908E9, 0.0, 2026-02-26 19:35:15.149
85.0, 11983.194885634766, 3243.327527442876, 13149.88889096843, 860.9668446739728, 12683.586798141814, -1621.2614323212424, 5681.925199261332, 13163.12112368597, 0.018000000000000002, -0.02, 1.018, 192.0, 0.0, 0.0, 0.0, 0.0, 0.0, 0.0, 0.0, 0.0, 0.0, 1.7721633151540685E9, 0.0, 2026-02-26 19:35:15.154
86.0, 11980.825600722505, 3226.519015612485, 13149.330097357048, 856.4741440384561, 12682.46921091905, -1626.089409123589, 5682.238123683706, 13162.159998674393, 0.022, -0.016, 1.02, 192.0, 0.0, 176.0, 255.0, 128.0, 31.0, 224.0, 0.0, 0.0, 0.0, 1.7721633151580267E9, 0.0, 2026-02-26 19:35:15.158
87.0, 11980.266807111122, 3216.30426839641, 13148.100751412005, 859.4245743065566, 12681.642196374201, -1622.9154614109352, 5681.902847516876, 13161.534149829646, 0.022, -0.016, 1.02, 192.0, 0.0, 0.0, 0.0, 0.0, 0.0, 0.0, 0.0, 0.0, 0.0, 1.7721633151620328E9, 0.0, 2026-02-26 19:35:15.162
88.0, 11977.629301265395, 3168.7397561955163, 13146.89375721142, 858.8434289507186, 12679.764649839957, -1624.0330486337004, 5681.612274838958, 13159.991879462228, 0.022, -0.016, 1.02, 192.0, 0.0, 0.0, 0.0, 0.0, 0.0, 0.0, 0.0, 0.0, 0.0, 1.772163315166086E9, 0.0, 2026-02-26 19:35:15.166
89.0, 11975.148257630857, 3093.3920256366764, 13145.910280455386, 859.1340016286375, 12679.787001584411, -1622.4907782662845, 5681.679330072324, 13159.343678873025, 0.022, -0.016, 1.02, 192.0, 0.0, 0.0, 0.0, 0.0, 0.0, 0.0, 0.0, 0.0, 0.0, 1.7721633151700797E9, 0.0, 2026-02-26 19:35:15.170
90.0, 11978.344557087965, 3175.937017910125, 13148.03369617864, 860.5868650182325, 12681.150457996186, -1621.529653254706, 5681.254646927673, 13161.332984129547, 0.022, -0.016, 1.02, 192.0, 0.0, 0.0, 0.0, 0.0, 0.0, 0.0, 0.0, 0.0, 0.0, 1.7721633151731825E9, 0.0, 2026-02-26 19:35:15.173
91.0, 11979.171571632813, 3186.2635238484772, 13148.167806645371, 862.0620801522828, 12681.441030674105, -1620.3226590541196, 5681.880495772421, 13161.489446340735, 0.022, -0.016, 1.02, 192.0, 0.0, 0.0, 0.0, 0.0, 0.0, 0.0, 0.0, 0.0, 0.0, 1.772163315177097E9, 0.0, 2026-02-26 19:35:15.177
92.0, 11978.65748151034, 3173.679491720139, 13146.714943255776, 861.3691760741683, 12680.166981240152, -1620.6579352209492, 5681.679330072324, 13160.03658295114, 0.022, -0.016, 1.02, 192.0, 0.0, 0.0, 0.0, 0.0, 0.0, 0.0, 0.0, 0.0, 0.0, 1.772163315183133E9, 0.0, 2026-02-26 19:35:15.183
93.0, 11977.361080331932, 3160.402555513687, 13145.753818244199, 862.1291353856487, 12679.27291146194, -1619.920327653924, 5682.1710684503405, 13159.254271895203, 0.022, -0.016, 1.02, 192.0, 0.0, 0.0, 0.0, 0.0, 0.0, 0.0, 0.0, 0.0, 0.0, 1.7721633151861937E9, 0.0, 2026-02-26 19:35:15.186
94.0, 11976.13173438689, 3118.649496871173, 13147.988992689729, 858.0611178947828, 12681.46338241856, -1623.98834514479, 5681.74638530569, 13161.444742851823, 0.022, -0.016, 1.02, 192.0, 0.0, 0.0, 0.0, 0.0, 0.0, 0.0, 0.0, 0.0, 0.0, 1.772163315191157E9, 0.0, 2026-02-26 19:35:15.191
95.0, 11977.56224603203, 3161.564846225363, 13147.877233967452, 856.7200132274644, 12681.12810625173, -1625.2176910898318, 5680.986425994209, 13161.310632385092, 0.022, -0.016, 1.02, 192.0, 0.0, 0.0, 0.0, 0.0, 0.0, 0.0, 0.0, 0.0, 0.0, 1.7721633151951797E9, 0.0, 2026-02-26 19:35:15.195
96.0, 11977.964577432225, 3175.2441138320105, 13146.491425811224, 854.2613213373807, 12679.60818762877, -1627.855196935558, 5680.494687616192, 13159.6566032954, 0.022, -0.016, 1.02, 192.0, 0.0, 0.0, 0.0, 0.0, 0.0, 0.0, 0.0, 0.0, 0.0, 1.7721633151982267E9, 0.0, 2026-02-26 19:35:15.198
97.0, 11976.578769275997, 3088.988731978981, 13147.564309545078, 859.0445946508163, 12680.569312640348, -1622.2225573328208, 5681.03112948312, 13161.243577151727, 0.018000000000000002, -0.02, 1.016, 192.0, 0.0, 144.0, 255.0, 96.0, 31.0, 192.0, 0.0, 0.0, 0.0, 1.7721633152012365E9, 0.0, 2026-02-26 19:35:15.201
98.0, 11973.963615174725, 3041.8936064116488, 13148.726600256754, 860.0280714068499, 12681.329271951829, -1621.2837840656978, 5680.964074249754, 13161.958832974296, 0.018000000000000002, -0.02, 1.016, 192.0, 0.0, 0.0, 0.0, 0.0, 0.0, 0.0, 0.0, 0.0, 0.0, 1.772163315205309E9, 0.0, 2026-02-26 19:35:15.205
99.0, 11977.361080331932, 3119.655325371662, 13149.777132246154, 859.3351673287353, 12682.737431852513, -1621.7755224437146, 5680.874667271933, 13162.897606241419, 0.018000000000000002, -0.02, 1.016, 192.0, 0.0, 0.0, 0.0, 0.0, 0.0, 0.0, 0.0, 0.0, 0.0, 1.7721633152103038E9, 0.0, 2026-02-26 19:35:15.210
100.0, 11980.333862344487, 3112.7709880794273, 13151.40880959139, 861.3021208408023, 12684.74908885349, -1619.9426793983794, 5681.03112948312, 13164.976318475763, 0.018000000000000002, -0.02, 1.016, 192.0, 0.0, 0.0, 0.0, 0.0, 0.0, 0.0, 0.0, 0.0, 0.0, 1.77216331521428E9, 0.0, 2026-02-26 19:35:15.214
101.0, 11978.098687898957, 3061.2502171099445, 13149.732428757243, 859.2234086064587, 12682.871542319244, -1622.4907782662845, 5681.1205364609405, 13163.143475430426, 0.018000000000000002, -0.02, 1.016, 192.0, 0.0, 0.0, 0.0, 0.0, 0.0, 0.0, 0.0, 0.0, 0.0, 1.7721633152183883E9, 0.0, 2026-02-26 19:35:15.218
102.0, 11979.126868143901, 3125.5114824189527, 13149.46420782378, 860.7433272294197, 12682.64802487469, -1621.507301510251, 5681.522867861137, 13162.964661474785, 0.018000000000000002, -0.02, 1.016, 192.0, 0.0, 0.0, 0.0, 0.0, 0.0, 0.0, 0.0, 0.0, 0.0, 1.7721633152224507E9, 0.0, 2026-02-26 19:35:15.222
103.0, 11984.245417624166, 3232.8669110377923, 13149.844187479519, 863.0679086527716, 12683.586798141814, -1618.5792229866056, 5681.589923094502, 13163.456399852801, 0.018000000000000002, -0.02, 1.016, 192.0, 0.0, 0.0, 0.0, 0.0, 0.0, 0.0, 0.0, 0.0, 0.0, 1.7721633152254589E9, 0.0, 2026-02-26 19:35:15.225
104.0, 11984.267769368622, 3185.2129918590776, 13148.570138045567, 863.0008534194056, 12682.22334173004, -1617.953374141857, 5681.344053905494, 13162.025888207661, 0.018000000000000002, -0.02, 1.016, 192.0, 0.0, 0.0, 0.0, 0.0, 0.0, 0.0, 0.0, 0.0, 0.0, 1.7721633152293909E9, 0.0, 2026-02-26 19:35:15.229
105.0, 11987.50877231464, 3219.4558643646083, 13147.631364778445, 861.3915278186236, 12680.591664384803, -1620.2332520762984, 5681.053481227575, 13160.997707962717, 0.018000000000000002, -0.02, 1.016, 192.0, 0.0, 0.0, 0.0, 0.0, 0.0, 0.0, 0.0, 0.0, 0.0, 1.7721633152354145E9, 0.0, 2026-02-26 19:35:15.235
106.0, 11984.558342046541, 3151.886540876215, 13146.044390922118, 863.0902603972269, 12679.228207973028, -1619.3168305536308, 5681.366405649949, 13159.298975384114, 0.018000000000000002, -0.02, 1.016, 192.0, 0.0, 0.0, 0.0, 0.0, 0.0, 0.0, 0.0, 0.0, 0.0, 1.772163315238439E9, 0.0, 2026-02-26 19:35:15.238
107.0, 11983.463106568232, 3085.5465633328636, 13146.98316418924, 863.2690743528693, 12680.546960895892, -1619.3168305536308, 5680.852315527477, 13160.237748651238, 0.016, -0.02, 1.018, 192.0, 0.0, 128.0, 255.0, 96.0, 31.0, 208.0, 0.0, 0.0, 0.0, 1.7721633152424655E9, 0.0, 2026-02-26 19:35:15.242
108.0, 11989.2298566377, 3154.8593228887707, 13148.100751412005, 865.1019173982046, 12682.156286496675, -1616.9698973858235, 5681.321702161039, 13162.092943441028, 0.016, -0.02, 1.018, 192.0, 0.0, 0.0, 0.0, 0.0, 0.0, 0.0, 0.0, 0.0, 0.0, 1.7721633152464912E9, 0.0, 2026-02-26 19:35:15.246
109.0, 11990.392147349376, 3122.181072495112, 13147.854882222997, 864.1631441310817, 12681.172809740641, -1617.7745601862146, 5680.874667271933, 13161.422391107368, 0.016, -0.02, 1.018, 192.0, 0.0, 0.0, 0.0, 0.0, 0.0, 0.0, 0.0, 0.0, 0.0, 1.7721633152504737E9, 0.0, 2026-02-26 19:35:15.250
110.0, 11994.348406117966, 3182.754299968994, 13147.69842001181, 863.3137778417799, 12680.882237062722, -1618.1768915864102, 5681.209943438762, 13160.930652729352, 0.016, -0.02, 1.018, 192.0, 0.0, 0.0, 0.0, 0.0, 0.0, 0.0, 0.0, 0.0, 0.0, 1.7721633152535443E9, 0.0, 2026-02-26 19:35:15.253
111.0, 11995.868324740926, 3216.1478061852226, 13144.658582765887, 867.4264988215565, 12678.110620750263, -1613.3042112951532, 5681.321702161039, 13158.293146883625, 0.016, -0.02, 1.018, 192.0, 0.0, 0.0, 0.0, 0.0, 0.0, 0.0, 0.0, 0.0, 0.0, 1.7721633152575014E9, 0.0, 2026-02-26 19:35:15.257
112.0, 11991.442679338776, 3071.5767230482966, 13142.17753913135, 869.214638377981, 12675.428411415627, -1610.8008159161589, 5680.69585331629, 13155.923861971363, 0.016, -0.02, 1.018, 192.0, 0.0, 0.0, 0.0, 0.0, 0.0, 0.0, 0.0, 0.0, 0.0, 1.7721633152615335E9, 0.0, 2026-02-26 19:35:15.261
113.0, 11992.56026656154, 3044.374650046188, 13142.445760064813, 871.7403855014308, 12674.422582915138, -1607.0010193587566, 5680.740556805201, 13155.990917204728, 0.016, -0.02, 1.018, 192.0, 0.0, 0.0, 0.0, 0.0, 0.0, 0.0, 0.0, 0.0, 0.0, 1.7721633152655501E9, 0.0, 2026-02-26 19:35:15.265
114.0, 11995.08601368499, 3033.914033641104, 13142.423408320357, 867.8735337106626, 12675.093135248797, -1611.60547871655, 5681.366405649949, 13155.70034452681, 0.016, -0.02, 1.018, 192.0, 0.0, 0.0, 0.0, 0.0, 0.0, 0.0, 0.0, 0.0, 0.0, 1.7721633152716548E9, 0.0, 2026-02-26 19:35:15.271
115.0, 11996.829449752504, 3032.7070394405177, 13142.736332742732, 860.0951266402158, 12675.942501538098, -1622.6472404774715, 5681.567571350047, 13155.6556410379, 0.016, -0.02, 1.018, 192.0, 0.0, 0.0, 0.0, 0.0, 0.0, 0.0, 0.0, 0.0, 0.0, 1.7721633152745752E9, 0.0, 2026-02-26 19:35:15.274
116.0, 11999.601066064963, 3050.4543245380314, 13142.065780409072, 856.4964957829113, 12675.450763160083, -1626.916423668435, 5679.93589400481, 13155.119199170971, 0.016, -0.02, 1.018, 192.0, 0.0, 0.0, 0.0, 0.0, 0.0, 0.0, 0.0, 0.0, 0.0, 1.772163315279726E9, 0.0, 2026-02-26 19:35:15.279
117.0, 12002.797365522072, 3057.472772296998, 13140.12117864146, 859.8939609401181, 12673.684975348113, -1622.826054433114, 5679.622969582435, 13153.107542169993, 0.014, -0.02, 1.018, 192.0, 0.0, 112.0, 255.0, 96.0, 31.0, 208.0, 0.0, 0.0, 0.0, 1.772163315283681E9, 0.0, 2026-02-26 19:35:15.283
118.0, 12003.959656233747, 3037.3785540316767, 13138.198928618303, 860.9444929295174, 12671.852132302778, -1621.8649294215359, 5680.0029492381755, 13151.118236913471, 0.014, -0.02, 1.018, 192.0, 0.0, 0.0, 0.0, 0.0, 0.0, 0.0, 0.0, 0.0, 0.0, 1.7721633152867153E9, 0.0, 2026-02-26 19:35:15.286
119.0, 12004.85372601196, 3034.718696441495, 13136.589603017523, 863.9172749420733, 12670.93571078011, -1618.2215950753207, 5680.204114938273, 13150.157111901894, 0.014, -0.02, 1.018, 192.0, 0.0, 0.0, 0.0, 0.0, 0.0, 0.0, 0.0, 0.0, 0.0, 1.7721633152896812E9, 0.0, 2026-02-26 19:35:15.289
120.0, 12005.770147534628, 3031.8800248956713, 13134.421483805358, 866.7559464878973, 12668.477018890026, -1614.9582403848458, 5680.539391105103, 13147.787826989632, 0.014, -0.02, 1.018, 192.0, 0.0, 0.0, 0.0, 0.0, 0.0, 0.0, 0.0, 0.0, 0.0, 1.772163315293658E9, 0.0, 2026-02-26 19:35:15.293
121.0, 12010.32990340351, 3032.6399842071514, 13134.600297761, 862.21854236347, 12667.962928767554, -1619.8756241650135, 5680.606446338469, 13147.296088611614, 0.014, -0.02, 1.018, 192.0, 0.0, 0.0, 0.0, 0.0, 0.0, 0.0, 0.0, 0.0, 0.0, 1.772163315297664E9, 0.0, 2026-02-26 19:35:15.297
122.0, 12014.196755194278, 3029.756609172417, 13134.041504149618, 856.2059231049924, 12667.672356089635, -1626.111760868044, 5679.93589400481, 13146.871405466964, 0.014, -0.02, 1.018, 192.0, 0.0, 0.0, 0.0, 0.0, 0.0, 0.0, 0.0, 0.0, 0.0, 1.7721633153016844E9, 0.0, 2026-02-26 19:35:15.301
123.0, 12015.80608079506, 3032.371763273688, 13132.11925412646, 852.7190509699644, 12666.13008572222, -1630.0903713810887, 5678.974768993231, 13144.770341488165, 0.014, -0.02, 1.018, 192.0, 0.0, 0.0, 0.0, 0.0, 0.0, 0.0, 0.0, 0.0, 0.0, 1.7721633153067627E9, 0.0, 2026-02-26 19:35:15.306
124.0, 12019.494118630186, 3036.5515394868303, 13132.096902382005, 851.1097253691823, 12666.755934566967, -1631.27501383722, 5678.8853620154105, 13144.703286254799, 0.014, -0.02, 1.018, 192.0, 0.0, 0.0, 0.0, 0.0, 0.0, 0.0, 0.0, 0.0, 0.0, 1.7721633153097184E9, 0.0, 2026-02-26 19:35:15.309
125.0, 12022.690418087295, 3036.3503737867327, 13131.98514365973, 851.7132224694756, 12666.867693289245, -1630.3585923145524, 5678.974768993231, 13144.680934510343, 0.014, -0.02, 1.018, 192.0, 0.0, 0.0, 0.0, 0.0, 0.0, 0.0, 0.0, 0.0, 0.0, 1.7721633153137636E9, 0.0, 2026-02-26 19:35:15.313
126.0, 12025.372627421932, 3037.7138301985065, 13130.822852948053, 850.9979666469058, 12666.197140955584, -1631.6102900040496, 5678.997120737687, 13143.675106009854, 0.014, -0.02, 1.018, 192.0, 0.0, 0.0, 0.0, 0.0, 0.0, 0.0, 0.0, 0.0, 0.0, 1.7721633153177657E9, 0.0, 2026-02-26 19:35:15.317
127.0, 12026.020828011135, 3031.991783617948, 13131.448701792802, 848.606329990188, 12666.711231078058, -1633.8454644495803, 5678.214809681751, 13144.278603110148, 0.014, -0.016, 1.014, 192.0, 0.0, 112.0, 255.0, 128.0, 31.0, 176.0, 0.0, 0.0, 0.0, 1.772163315321804E9, 0.0, 2026-02-26 19:35:15.321
128.0, 12026.825490811527, 3030.9412516285483, 13131.627515748443, 851.7132224694756, 12666.822989800334, -1629.665688236438, 5678.147754448385, 13144.300954854603, 0.014, -0.016, 1.014, 192.0, 0.0, 0.0, 0.0, 0.0, 0.0, 0.0, 0.0, 0.0, 0.0, 1.772163315325794E9, 0.0, 2026-02-26 19:35:15.325
129.0, 12029.2394792127, 3037.4009057761323, 13130.286411081126, 855.1330393711376, 12666.375954911227, -1625.955298656857, 5678.259513170661, 13143.40688507639, 0.014, -0.016, 1.014, 192.0, 0.0, 0.0, 0.0, 0.0, 0.0, 0.0, 0.0, 0.0, 0.0, 1.7721633153298192E9, 0.0, 2026-02-26 19:35:15.329
130.0, 12030.848804813482, 3038.4514377655314, 13129.92878316984, 856.8764754386516, 12665.571292110837, -1623.6754207224155, 5678.684196315312, 13142.781036231641, 0.014, -0.016, 1.014, 192.0, 0.0, 0.0, 0.0, 0.0, 0.0, 0.0, 0.0, 0.0, 0.0, 1.7721633153348577E9, 0.0, 2026-02-26 19:35:15.334
131.0, 12032.43577866981, 3042.474751767487, 13130.621687247954, 859.5810365177437, 12666.755934566967, -1620.4120660319409, 5679.0641759710525, 13143.675106009854, 0.014, -0.016, 1.014, 192.0, 0.0, 0.0, 0.0, 0.0, 0.0, 0.0, 0.0, 0.0, 0.0, 1.7721633153378556E9, 0.0, 2026-02-26 19:35:15.337
132.0, 12031.854633313971, 3040.6642604666067, 13129.772320958653, 862.6879289970313, 12666.107733977764, -1616.4558072633515, 5679.198286437784, 13143.07160890956, 0.014, -0.016, 1.014, 192.0, 0.0, 0.0, 0.0, 0.0, 0.0, 0.0, 0.0, 0.0, 0.0, 1.7721633153408763E9, 0.0, 2026-02-26 19:35:15.340
133.0, 12032.167557736346, 3039.6360802216627, 13129.101768624994, 861.7938592188191, 12665.07955373282, -1617.729856697304, 5679.555914349069, 13141.506986797689, 0.014, -0.016, 1.014, 192.0, 0.0, 0.0, 0.0, 0.0, 0.0, 0.0, 0.0, 0.0, 0.0, 1.772163315345883E9, 0.0, 2026-02-26 19:35:15.345
134.0, 12033.933345548314, 3036.305670297822, 13128.341809313513, 863.023205163861, 12664.40900139916, -1617.9086706529465, 5679.779431793622, 13141.283469353137, 0.014, -0.016, 1.014, 192.0, 0.0, 0.0, 0.0, 0.0, 0.0, 0.0, 0.0, 0.0, 0.0, 1.772163315349902E9, 0.0, 2026-02-26 19:35:15.349
135.0, 12037.062589772057, 3041.4242197780873, 13126.97835290174, 861.570341774266, 12662.665565331647, -1619.5179962537286, 5679.757080049167, 13139.562385030078, 0.014, -0.016, 1.014, 192.0, 0.0, 0.0, 0.0, 0.0, 0.0, 0.0, 0.0, 0.0, 0.0, 1.7721633153539248E9, 0.0, 2026-02-26 19:35:15.353
136.0, 12040.23653748471, 3043.9052634126265, 13122.887983666418, 860.1621818735817, 12658.955175752066, -1620.9485078988682, 5679.622969582435, 13135.650829750399, 0.014, -0.016, 1.014, 192.0, 0.0, 0.0, 0.0, 0.0, 0.0, 0.0, 0.0, 0.0, 0.0, 1.772163315360008E9, 0.0, 2026-02-26 19:35:15.360
137.0, 12042.762284608161, 3041.3124610558107, 13119.892849909407, 862.151487130104, 12655.758876294956, -1617.953374141857, 5679.310045160061, 13132.856861693486, 0.02, -0.024, 1.03, 192.0, 0.0, 160.0, 255.0, 64.0, 32.0, 48.0, 0.0, 0.0, 0.0, 1.7721633153631675E9, 0.0, 2026-02-26 19:35:15.363
138.0, 12045.980935809725, 3045.112257613213, 13119.088187109017, 863.7161092419755, 12655.7365245505, -1614.8688334070246, 5679.913542260354, 13132.163957615372, 0.02, -0.024, 1.03, 192.0, 0.0, 0.0, 0.0, 0.0, 0.0, 0.0, 0.0, 0.0, 0.0, 1.7721633153670068E9, 0.0, 2026-02-26 19:35:15.367
139.0, 12046.450322443286, 3047.6156529922073, 13120.496347009701, 864.9231034425621, 12657.859940273756, -1613.214804317332, 5680.047652727086, 13133.706227982788, 0.02, -0.024, 1.03, 192.0, 0.0, 0.0, 0.0, 0.0, 0.0, 0.0, 0.0, 0.0, 0.0, 1.772163315370005E9, 0.0, 2026-02-26 19:35:15.370
140.0, 12041.756456107672, 3044.17348434609, 13121.010437132174, 864.7666412313749, 12657.926995507121, -1613.1253973395108, 5679.466507371248, 13134.041504149618, 0.02, -0.024, 1.03, 192.0, 0.0, 0.0, 0.0, 0.0, 0.0, 0.0, 0.0, 0.0, 0.0, 1.7721633153740373E9, 0.0, 2026-02-26 19:35:15.374
141.0, 12038.336639206009, 3041.8712546671936, 13123.245611577704, 867.5159057993777, 12660.206873441562, -1609.8843943934912, 5679.108879459963, 13136.477844295247, 0.02, -0.024, 1.03, 192.0, 0.0, 0.0, 0.0, 0.0, 0.0, 0.0, 0.0, 0.0, 0.0, 1.7721633153780353E9, 0.0, 2026-02-26 19:35:15.378
142.0, 12035.632078126917, 3043.167655845601, 13126.531318012634, 867.0912226547268, 12662.620861842735, -1610.823167660614, 5679.533562604614, 13139.383571074435, 0.02, -0.024, 1.03, 192.0, 0.0, 0.0, 0.0, 0.0, 0.0, 0.0, 0.0, 0.0, 0.0, 1.7721633153822303E9, 0.0, 2026-02-26 19:35:15.382
143.0, 12033.352200192476, 3045.8275134357827, 13132.052198893094, 869.4381558225341, 12668.36526016775, -1608.3644757705304, 5680.338225405005, 13144.703286254799, 0.02, -0.024, 1.03, 192.0, 0.0, 0.0, 0.0, 0.0, 0.0, 0.0, 0.0, 0.0, 0.0, 1.7721633153860984E9, 0.0, 2026-02-26 19:35:15.386
