%OpenBCI Raw EXG Data
%Number of channels = 8
%Sample Rate = 250 Hz
%Board = OpenBCI_GUI$BoardCytonSerial
Sample Index, EXG Channel 0, EXG Channel 1, EXG Channel 2, EXG Channel 3, EXG Channel 4, EXG Channel 5, EXG Channel 6, EXG Channel 7, Accel Channel 0, Accel Channel 1, Accel Channel 2, Not Used, Digital Channel 0 (D11), Digital Channel 1 (D12), Digital Channel 2 (D13), Digital Channel 3 (D17), Not Used, Digital Channel 4 (D18), Analog Channel 0, Analog Channel 1, Analog Channel 2, Timestamp, Marker Channel, Timestamp (Formatted)
0.0, 0.0, 0.0, 0.0, 0.0, 0.0, 0.0, 0.0, 0.0, 0.0, 0.0, 0.0, 192.0, 0.0, 0.0, 0.0, 0.0, 0.0, 0.0, 0.0, 0.0, 0.0, 1.7719023850269551E9, 0.0, 2026-02-23 19:06:25.026
1.0, 38350.13965965983, -16527.483347354337, -10538.333420554807, 89203.24167051812, -8101.076853403671, -5140.945928209535, 71441.31618038609, -16586.46960097189, 0.008, 0.054, 0.976, 192.0, 0.0, 64.0, 1.0, 176.0, 30.0, 128.0, 0.0, 0.0, 0.0, 1.7719023850429103E9, 0.0, 2026-02-23 19:06:25.042
2.0, 38316.52263599904, -16545.923536529965, -10520.027341845911, 89194.32332448046, -8089.677463731464, -5129.8147594707925, 71433.89540122692, -16599.99240636735, 0.008, 0.054, 0.976, 192.0, 0.0, 0.0, 0.0, 0.0, 0.0, 0.0, 0.0, 0.0, 0.0, 1.7719023850459356E9, 0.0, 2026-02-23 19:06:25.045
3.0, 38297.34483925639, -16554.28308895625, -10535.315935053342, 89188.86949883336, -8106.262458117302, -5146.6679747900935, 71430.5649913031, -16606.496764003845, 0.008, 0.054, 0.976, 192.0, 0.0, 0.0, 0.0, 0.0, 0.0, 0.0, 0.0, 0.0, 0.0, 1.7719023850501325E9, 0.0, 2026-02-23 19:06:25.050
4.0, 38321.5964819904, -16536.8040247922, -10557.712382997559, 89187.05900753249, -8125.574365326687, -5165.510495365917, 71434.45419483831, -16595.32089177619, 0.008, 0.054, 0.976, 192.0, 0.0, 0.0, 0.0, 0.0, 0.0, 0.0, 0.0, 0.0, 0.0, 1.7719023850539112E9, 0.0, 2026-02-23 19:06:25.053
5.0, 38337.35446183139, -16526.41046362048, -10550.425714305129, 89182.96863829717, -8121.908679236017, -5162.671823820094, 71435.59413380553, -16585.888455616052, 0.008, 0.054, 0.976, 192.0, 0.0, 0.0, 0.0, 0.0, 0.0, 0.0, 0.0, 0.0, 0.0, 1.771902385057921E9, 0.0, 2026-02-23 19:06:25.057
6.0, 38309.92887138473, -16543.12956847305, -10527.246955304976, 89175.39139692682, -8103.110862149104, -5141.437666587552, 71429.82738373606, -16598.00310111083, 0.008, 0.054, 0.976, 192.0, 0.0, 0.0, 0.0, 0.0, 0.0, 0.0, 0.0, 0.0, 0.0, 1.7719023850609539E9, 0.0, 2026-02-23 19:06:25.060
7.0, 38284.38082747231, -16555.490083156834, -10533.684257708104, 89168.9987980126, -8117.08070243367, -5152.099448692733, 71424.9099999559, -16605.982673881375, 0.008, 0.054, 0.976, 192.0, 0.0, 0.0, 0.0, 0.0, 0.0, 0.0, 0.0, 0.0, 0.0, 1.771902385065206E9, 0.0, 2026-02-23 19:06:25.065
8.0, 38301.68107768072, -16538.36864690407, -10553.197330617588, 89164.550800866, -8141.108827723126, -5175.680539093082, 71425.91582845639, -16596.259665043315, 0.008, 0.052000000000000005, 0.966, 192.0, 0.0, 64.0, 1.0, 160.0, 30.0, 48.0, 0.0, 0.0, 0.0, 1.7719023850700202E9, 0.0, 2026-02-23 19:06:25.070
9.0, 38323.339918057914, -16522.968294974362, -10545.08364738031, 89160.48278337512, -8134.112731708615, -5168.483277378474, 71427.52515405716, -16582.468638714392, 0.008, 0.052000000000000005, 0.966, 192.0, 0.0, 0.0, 0.0, 0.0, 0.0, 0.0, 0.0, 0.0, 0.0, 1.7719023850740476E9, 0.0, 2026-02-23 19:06:25.074
10.0, 38303.91625212625, -16537.31811491467, -10519.1332720677, 89154.6936815612, -8111.582173297665, -5145.460980589507, 71424.21709587779, -16591.85637138562, 0.008, 0.052000000000000005, 0.966, 192.0, 0.0, 0.0, 0.0, 0.0, 0.0, 0.0, 0.0, 0.0, 0.0, 1.7719023850781E9, 0.0, 2026-02-23 19:06:25.078
11.0, 38273.80845234495, -16553.8584058116, -10517.322780766819, 89148.61400706935, -8111.6492285310305, -5143.605785799717, 71418.8079737196, -16597.17608656598, 0.008, 0.052000000000000005, 0.966, 192.0, 0.0, 0.0, 0.0, 0.0, 0.0, 0.0, 0.0, 0.0, 0.0, 1.7719023850820785E9, 0.0, 2026-02-23 19:06:25.082
12.0, 38284.80551061696, -16540.581469605146, -10537.841682176791, 89144.25541690057, -8136.549071854243, -5167.16452445561, 71419.6573400089, -16593.89038013105, 0.008, 0.052000000000000005, 0.966, 192.0, 0.0, 0.0, 0.0, 0.0, 0.0, 0.0, 0.0, 0.0, 0.0, 1.7719023850850892E9, 0.0, 2026-02-23 19:06:25.085
13.0, 38307.179606816724, -16517.626228049547, -10538.959269399556, 89137.05815518597, -8139.23128118888, -5171.679576835582, 71418.69621499733, -16577.03716481175, 0.008, 0.052000000000000005, 0.966, 192.0, 0.0, 0.0, 0.0, 0.0, 0.0, 0.0, 0.0, 0.0, 0.0, 1.7719023850893557E9, 0.0, 2026-02-23 19:06:25.089
14.0, 38295.82492063343, -16526.36576013157, -10516.719283666525, 89131.5372743055, -8117.348923367134, -5147.584396312761, 71416.37163357397, -16582.245121269836, 0.008, 0.052000000000000005, 0.966, 192.0, 0.0, 0.0, 0.0, 0.0, 0.0, 0.0, 0.0, 0.0, 0.0, 1.7719023850930846E9, 0.0, 2026-02-23 19:06:25.093
15.0, 38262.00673127255, -16543.80012080671, -10513.008894086945, 89123.71416374615, -8115.1137489216035, -5144.499855577928, 71409.33083407056, -16589.062403328706, 0.008, 0.052000000000000005, 0.966, 192.0, 0.0, 0.0, 0.0, 0.0, 0.0, 0.0, 0.0, 0.0, 0.0, 1.771902385097479E9, 0.0, 2026-02-23 19:06:25.097
16.0, 38265.06892026293, -16533.920649757463, -10538.109903110255, 89118.0815241434, -8122.6239350585865, -5169.600864601239, 71408.10148812551, -16587.050746327728, 0.008, 0.052000000000000005, 0.966, 192.0, 0.0, 0.0, 0.0, 0.0, 0.0, 0.0, 0.0, 0.0, 0.0, 1.7719023851020813E9, 0.0, 2026-02-23 19:06:25.102
17.0, 38296.070789822435, -16515.301646626194, -10549.621051504739, 89117.27686134301, -8055.345184248113, -5184.420071175107, 71413.7564794727, -16574.80199036622, 0.012, 0.044, 0.968, 192.0, 0.0, 96.0, 1.0, 96.0, 30.0, 64.0, 0.0, 0.0, 0.0, 1.7719023851061096E9, 0.0, 2026-02-23 19:06:25.106
18.0, 38292.42745547622, -16518.65440829449, -10531.069103606833, 89112.00184965157, -8117.058350689215, -5166.851600033236, 71412.50478178321, -16577.439496211948, 0.012, 0.044, 0.968, 192.0, 0.0, 0.0, 0.0, 0.0, 0.0, 0.0, 0.0, 0.0, 0.0, 1.7719023851101303E9, 0.0, 2026-02-23 19:06:25.110
19.0, 38258.13987948178, -16537.899260270508, -10520.295562779374, 89104.87164317032, -8126.5578420827205, -5156.569797583795, 71406.62627299146, -16591.722260918887, 0.012, 0.044, 0.968, 192.0, 0.0, 0.0, 0.0, 0.0, 0.0, 0.0, 0.0, 0.0, 0.0, 1.771902385113154E9, 0.0, 2026-02-23 19:06:25.113
20.0, 38253.69188233517, -16534.188870690927, -10541.485016523005, 89099.77544543451, -8108.967019196394, -5174.942931526057, 71404.83813343503, -16589.107106817617, 0.012, 0.044, 0.968, 192.0, 0.0, 0.0, 0.0, 0.0, 0.0, 0.0, 0.0, 0.0, 0.0, 1.7719023851171653E9, 0.0, 2026-02-23 19:06:25.117
21.0, 38278.457615191655, -16509.8478209791, -10557.667679508648, 89093.1816808202, -7917.367865725502, -5190.678559622594, 71404.23463633473, -16569.437571696948, 0.012, 0.044, 0.968, 192.0, 0.0, 0.0, 0.0, 0.0, 0.0, 0.0, 0.0, 0.0, 0.0, 1.7719023851211672E9, 0.0, 2026-02-23 19:06:25.121
22.0, 38282.54798442698, -16508.84199247861, -10542.066161878844, 89088.08548308439, -8025.438550166911, -5173.512419880917, 71403.74289795672, -16568.319984474183, 0.012, 0.044, 0.968, 192.0, 0.0, 0.0, 0.0, 0.0, 0.0, 0.0, 0.0, 0.0, 0.0, 1.7719023851252096E9, 0.0, 2026-02-23 19:06:25.125
23.0, 38249.445050888666, -16529.159728188482, -10525.212946559543, 89081.20114579215, -8129.284754906268, -5157.329756895275, 71398.51258975417, -16586.42489748298, 0.012, 0.044, 0.968, 192.0, 0.0, 0.0, 0.0, 0.0, 0.0, 0.0, 0.0, 0.0, 0.0, 1.7719023851302373E9, 0.0, 2026-02-23 19:06:25.130
24.0, 38240.23613217308, -16534.41238813548, -10538.758103699458, 89078.9212678577, -8117.684199533964, -5171.433707646574, 71398.91492115437, -16591.61050219661, 0.012, 0.044, 0.968, 192.0, 0.0, 0.0, 0.0, 0.0, 0.0, 0.0, 0.0, 0.0, 0.0, 1.7719023851342692E9, 0.0, 2026-02-23 19:06:25.134
25.0, 38266.54413539697, -16514.295818125705, -10556.259519607964, 89075.9261341007, -7934.690467678365, -5186.319969453808, 71401.64183397792, -16573.885568843554, 0.012, 0.044, 0.968, 192.0, 0.0, 0.0, 0.0, 0.0, 0.0, 0.0, 0.0, 0.0, 0.0, 1.7719023851372316E9, 0.0, 2026-02-23 19:06:25.137
26.0, 38278.6364291473, -16508.864344223064, -10542.692010723593, 89071.76870963202, -8005.120814457037, -5172.126611724689, 71402.5582555006, -16568.319984474183, 0.012, 0.044, 0.968, 192.0, 0.0, 0.0, 0.0, 0.0, 0.0, 0.0, 0.0, 0.0, 0.0, 1.77190238514124E9, 0.0, 2026-02-23 19:06:25.141
27.0, 38246.38286189829, -16525.82931826464, -10518.529774967406, 89062.80566010543, -8125.931993237972, -5149.6631085471045, 71395.4056972749, -16581.686327658455, 0.008, 0.038, 0.968, 192.0, 0.0, 64.0, 1.0, 48.0, 30.0, 64.0, 0.0, 0.0, 0.0, 1.7719023851452477E9, 0.0, 2026-02-23 19:06:25.145
28.0, 38226.19923665515, -16533.40655963499, -10525.972905871024, 89056.68128212467, -8127.116635694103, -5158.961434240513, 71391.27062455066, -16586.983691094363, 0.008, 0.038, 0.968, 192.0, 0.0, 0.0, 0.0, 0.0, 0.0, 0.0, 0.0, 0.0, 0.0, 1.771902385149269E9, 0.0, 2026-02-23 19:06:25.149
29.0, 38247.25457993204, -16514.139355914518, -10546.692972981093, 89052.38974718926, -7964.1947703593705, -5181.9390275405685, 71392.43291526234, -16572.94679557643, 0.008, 0.038, 0.968, 192.0, 0.0, 0.0, 0.0, 0.0, 0.0, 0.0, 0.0, 0.0, 0.0, 1.7719023851534188E9, 0.0, 2026-02-23 19:06:25.153
30.0, 38264.66658886273, -16502.31528309766, -10540.412132789152, 89047.02532851999, -7929.102531564538, -5173.981806514479, 71392.54467398461, -16562.016792537786, 0.008, 0.038, 0.968, 192.0, 0.0, 0.0, 0.0, 0.0, 0.0, 0.0, 0.0, 0.0, 0.0, 1.771902385158356E9, 0.0, 2026-02-23 19:06:25.158
31.0, 38239.34206239487, -16518.430890849937, -10517.36748425573, 89039.96217727211, -8107.93883895145, -5149.797219013836, 71387.6943454378, -16575.830170611163, 0.008, 0.038, 0.968, 192.0, 0.0, 0.0, 0.0, 0.0, 0.0, 0.0, 0.0, 0.0, 0.0, 1.7719023851623917E9, 0.0, 2026-02-23 19:06:25.162
32.0, 38213.27992835998, -16530.813757278178, -10519.759120912448, 89033.59193010235, -8128.547147339243, -5155.251044660931, 71382.97812735774, -16585.41906898249, 0.008, 0.038, 0.968, 192.0, 0.0, 0.0, 0.0, 0.0, 0.0, 0.0, 0.0, 0.0, 0.0, 1.7719023851653464E9, 0.0, 2026-02-23 19:06:25.165
33.0, 38231.407193113235, -16516.03925419322, -10535.338286797796, 89031.35675565682, -8009.568811603644, -5172.0819082357775, 71385.83915064803, -16574.42201071048, 0.008, 0.038, 0.968, 192.0, 0.0, 0.0, 0.0, 0.0, 0.0, 0.0, 0.0, 0.0, 0.0, 1.77190238516974E9, 0.0, 2026-02-23 19:06:25.169
34.0, 38254.76476606903, -16499.297797596195, -10529.146853583678, 89026.4617236211, -7934.891633378463, -5159.54257959635, 71386.88968263743, -16558.88754831404, 0.008, 0.038, 0.968, 192.0, 0.0, 0.0, 0.0, 0.0, 0.0, 0.0, 0.0, 0.0, 0.0, 1.771902385173385E9, 0.0, 2026-02-23 19:06:25.173
35.0, 38235.810486770926, -16509.646655279, -10507.018626572923, 89018.54920608393, -8097.992312668838, -5131.200567627021, 71381.7487814127, -16566.263623984294, 0.008, 0.038, 0.968, 192.0, 0.0, 0.0, 0.0, 0.0, 0.0, 0.0, 0.0, 0.0, 0.0, 1.7719023851773877E9, 0.0, 2026-02-23 19:06:25.177
36.0, 38204.920375933696, -16523.929419985943, -10511.399568486164, 89010.56963331338, -8119.360580368112, -5133.949832195024, 71374.95385109828, -16575.070211299684, 0.008, 0.038, 0.968, 192.0, 0.0, 0.0, 0.0, 0.0, 0.0, 0.0, 0.0, 0.0, 0.0, 1.7719023851814537E9, 0.0, 2026-02-23 19:06:25.181
37.0, 38216.11859990581, -16511.479498324337, -10534.51127225295, 89006.76983675598, -8014.374436661535, -5159.341413896253, 71376.00438308768, -16568.498798429824, 0.01, 0.036000000000000004, 0.966, 192.0, 0.0, 80.0, 1.0, 32.0, 30.0, 48.0, 0.0, 0.0, 0.0, 1.7719023851854117E9, 0.0, 2026-02-23 19:06:25.185
38.0, 38246.025233987006, -16493.195771359893, -10534.198347830576, 89004.22173788807, -7869.8704087579745, -5162.425954631085, 71379.67006917836, -16552.897280800018, 0.01, 0.036000000000000004, 0.966, 192.0, 0.0, 0.0, 0.0, 0.0, 0.0, 0.0, 0.0, 0.0, 0.0, 1.7719023851904428E9, 0.0, 2026-02-23 19:06:25.190
39.0, 38238.64915831675, -16502.427041819938, -10509.253801018454, 89000.24312737503, -8062.296576773713, -5136.497931062929, 71379.26773777817, -16560.22865298136, 0.01, 0.036000000000000004, 0.966, 192.0, 0.0, 0.0, 0.0, 0.0, 0.0, 0.0, 0.0, 0.0, 0.0, 1.7719023851934705E9, 0.0, 2026-02-23 19:06:25.193
40.0, 38205.747390478544, -16519.41436760597, -10499.530792180394, 88992.53177553795, -8116.007818699815, -5128.428951314563, 71372.71867665276, -16570.488103686344, 0.01, 0.036000000000000004, 0.966, 192.0, 0.0, 0.0, 0.0, 0.0, 0.0, 0.0, 0.0, 0.0, 0.0, 1.771902385197451E9, 0.0, 2026-02-23 19:06:25.197
41.0, 38208.42959981318, -16510.8983529685, -10523.290696536385, 88987.68144699115, -8059.904940116995, -5150.735992280959, 71372.00342083018, -16566.487141428846, 0.01, 0.036000000000000004, 0.966, 192.0, 0.0, 0.0, 0.0, 0.0, 0.0, 0.0, 0.0, 0.0, 0.0, 1.7719023852015376E9, 0.0, 2026-02-23 19:06:25.201
42.0, 38239.81144902843, -16490.4912102808, -10536.008839131457, 88985.37921731225, -7853.911263216885, -5159.386117385164, 71375.91497610987, -16550.12566448756, 0.01, 0.036000000000000004, 0.966, 192.0, 0.0, 0.0, 0.0, 0.0, 0.0, 0.0, 0.0, 0.0, 0.0, 1.7719023852054815E9, 0.0, 2026-02-23 19:06:25.205
43.0, 38236.65985306023, -16490.98294865882, -10519.960286612546, 88977.95843815309, -7988.982854960305, -5138.442532830541, 71372.6963249083, -16550.170367976472, 0.01, 0.036000000000000004, 0.966, 192.0, 0.0, 0.0, 0.0, 0.0, 0.0, 0.0, 0.0, 0.0, 0.0, 1.7719023852094896E9, 0.0, 2026-02-23 19:06:25.209
44.0, 38205.30035558943, -16511.725367513343, -10513.053597575856, 88972.41520552817, -8110.174013396981, -5127.624288514172, 71368.6953626508, -16567.649432140523, 0.01, 0.036000000000000004, 0.966, 192.0, 0.0, 0.0, 0.0, 0.0, 0.0, 0.0, 0.0, 0.0, 0.0, 1.7719023852135043E9, 0.0, 2026-02-23 19:06:25.213
45.0, 38197.52194851899, -16506.517411055258, -10534.80184493087, 88964.92737113564, -8062.564797707177, -5150.825399258781, 71364.53793818211, -16563.84963558312, 0.01, 0.036000000000000004, 0.966, 192.0, 0.0, 0.0, 0.0, 0.0, 0.0, 0.0, 0.0, 0.0, 0.0, 1.7719023852185824E9, 0.0, 2026-02-23 19:06:25.218
46.0, 38225.5733878104, -16483.204541588373, -10547.855263692769, 88959.98763561102, -7843.025963667151, -5168.326815167286, 71365.58847017151, -16543.017809750774, 0.01, 0.036000000000000004, 0.966, 192.0, 0.0, 0.0, 0.0, 0.0, 0.0, 0.0, 0.0, 0.0, 0.0, 1.7719023852215683E9, 0.0, 2026-02-23 19:06:25.221
47.0, 38232.65889080273, -16481.416402031948, -10532.879594907714, 88955.40552799769, -7881.090984474538, -5153.395849871141, 71365.83433936052, -16541.162614960984, 0.008, 0.036000000000000004, 0.97, 192.0, 0.0, 64.0, 1.0, 32.0, 30.0, 80.0, 0.0, 0.0, 0.0, 1.7719023852245753E9, 0.0, 2026-02-23 19:06:25.224
48.0, 38202.72990497707, -16502.471745308845, -10516.763987155437, 88949.77288839495, -8089.610408498098, -5134.687439762049, 71362.03454280311, -16560.78744659274, 0.008, 0.036000000000000004, 0.97, 192.0, 0.0, 0.0, 0.0, 0.0, 0.0, 0.0, 0.0, 0.0, 0.0, 1.77190238522959E9, 0.0, 2026-02-23 19:06:25.229
49.0, 38190.36939029329, -16506.11507965506, -10531.113807095744, 88945.32489124834, -8079.775640937763, -5147.852617246225, 71360.38051371343, -16564.52018791678, 0.008, 0.036000000000000004, 0.97, 192.0, 0.0, 0.0, 0.0, 0.0, 0.0, 0.0, 0.0, 0.0, 0.0, 1.771902385233771E9, 0.0, 2026-02-23 19:06:25.233
50.0, 38217.70557376213, -16485.506771267268, -10548.36935381524, 88942.28505400242, -7861.823780754064, -5168.371518656197, 71362.95096432579, -16545.23063245185, 0.008, 0.036000000000000004, 0.97, 192.0, 0.0, 0.0, 0.0, 0.0, 0.0, 0.0, 0.0, 0.0, 0.0, 1.7719023852375984E9, 0.0, 2026-02-23 19:06:25.237
51.0, 38232.56948382491, -16478.39891653048, -10536.433522276107, 88938.4405539561, -7855.185312650838, -5157.329756895275, 71364.38147597092, -16538.145129459517, 0.008, 0.036000000000000004, 0.97, 192.0, 0.0, 0.0, 0.0, 0.0, 0.0, 0.0, 0.0, 0.0, 0.0, 1.7719023852416432E9, 0.0, 2026-02-23 19:06:25.241
52.0, 38203.713381733105, -16494.98391091632, -10516.786338899892, 88930.32687071883, -8067.906864631995, -5138.934271208557, 71358.61472590145, -16554.014868022787, 0.008, 0.036000000000000004, 0.97, 192.0, 0.0, 0.0, 0.0, 0.0, 0.0, 0.0, 0.0, 0.0, 0.0, 1.7719023852457108E9, 0.0, 2026-02-23 19:06:25.245
53.0, 38183.70857044561, -16503.008187175776, -10529.727998939516, 88924.76128634946, -8063.905902374495, -5153.619367315694, 71355.21726074425, -16562.016792537786, 0.008, 0.036000000000000004, 0.97, 192.0, 0.0, 0.0, 0.0, 0.0, 0.0, 0.0, 0.0, 0.0, 0.0, 1.7719023852486777E9, 0.0, 2026-02-23 19:06:25.248
54.0, 38206.64146025675, -16483.87509392203, -10552.906757939669, 88921.1850072366, -7845.954042190796, -5171.433707646574, 71356.8936415784, -16543.643658595523, 0.008, 0.036000000000000004, 0.97, 192.0, 0.0, 0.0, 0.0, 0.0, 0.0, 0.0, 0.0, 0.0, 0.0, 1.7719023852526677E9, 0.0, 2026-02-23 19:06:25.252
55.0, 38229.99903321255, -16473.25801530576, -10545.75419971397, 88919.30746070236, -7805.922067871341, -5165.286977921364, 71360.80519685808, -16533.160690445984, 0.008, 0.036000000000000004, 0.97, 192.0, 0.0, 0.0, 0.0, 0.0, 0.0, 0.0, 0.0, 0.0, 0.0, 1.771902385256735E9, 0.0, 2026-02-23 19:06:25.256
56.0, 38207.60258526833, -16487.138448612506, -10522.866013391735, 88911.57375712083, -7970.453258806856, -5145.706849778516, 71355.91016482236, -16546.61644060808, 0.008, 0.03, 0.97, 192.0, 0.0, 64.0, 0.0, 240.0, 30.0, 80.0, 0.0, 0.0, 0.0, 1.7719023852616978E9, 0.0, 2026-02-23 19:06:25.261
57.0, 38181.24987855552, -16497.844934206598, -10524.22946980351, 88904.24238493948, -8035.809759594174, -5152.345317881742, 71350.61280138645, -16557.09940875762, 0.008, 0.03, 0.97, 192.0, 0.0, 0.0, 0.0, 0.0, 0.0, 0.0, 0.0, 0.0, 0.0, 1.7719023852657287E9, 0.0, 2026-02-23 19:06:25.265
58.0, 38198.483073530566, -16479.941186897897, -10545.016592146945, 88899.36970464823, -7829.972544905251, -5176.194629215554, 71350.74691185319, -16539.709751571387, 0.008, 0.03, 0.97, 192.0, 0.0, 0.0, 0.0, 0.0, 0.0, 0.0, 0.0, 0.0, 0.0, 1.7719023852697651E9, 0.0, 2026-02-23 19:06:25.269
59.0, 38225.14870466575, -16460.15989305495, -10542.669658979137, 88894.47467261252, -7797.786032889609, -5172.5512948693395, 71352.0433130316, -16520.241382150816, 0.008, 0.03, 0.97, 192.0, 0.0, 0.0, 0.0, 0.0, 0.0, 0.0, 0.0, 0.0, 0.0, 1.7719023852728765E9, 0.0, 2026-02-23 19:06:25.272
60.0, 38214.621033027295, -16470.844026904586, -10520.452024990562, 88890.25019291046, -7951.856607420041, -5148.813742257803, 71351.41746418684, -16530.724350300356, 0.008, 0.03, 0.97, 192.0, 0.0, 0.0, 0.0, 0.0, 0.0, 0.0, 0.0, 0.0, 0.0, 1.7719023852767832E9, 0.0, 2026-02-23 19:06:25.276
61.0, 38188.067160614395, -16485.12679161153, -10519.17797555661, 88884.9304777301, -8069.024451854761, -5144.522207322384, 71348.19881298528, -16544.716542329377, 0.008, 0.03, 0.97, 192.0, 0.0, 0.0, 0.0, 0.0, 0.0, 0.0, 0.0, 0.0, 0.0, 1.7719023852809565E9, 0.0, 2026-02-23 19:06:25.280
62.0, 38201.500559032036, -16470.97813737132, -10541.999106645479, 88881.35419861725, -7874.564275093589, -5167.455097133529, 71349.22699323023, -16530.880812511543, 0.008, 0.03, 0.97, 192.0, 0.0, 0.0, 0.0, 0.0, 0.0, 0.0, 0.0, 0.0, 0.0, 1.7719023852867863E9, 0.0, 2026-02-23 19:06:25.286
63.0, 38234.73760303707, -16448.648744660466, -10548.99520265999, 88878.47082358251, -7787.25836125116, -5174.115916981211, 71352.82562408753, -16508.864344223064, 0.008, 0.03, 0.97, 192.0, 0.0, 0.0, 0.0, 0.0, 0.0, 0.0, 0.0, 0.0, 0.0, 1.7719023852897952E9, 0.0, 2026-02-23 19:06:25.289
64.0, 38231.63071055779, -16451.420360972927, -10530.219737317531, 88872.56996304632, -7802.122271313939, -5153.798181271337, 71351.21629848675, -16511.479498324337, 0.008, 0.03, 0.97, 192.0, 0.0, 0.0, 0.0, 0.0, 0.0, 0.0, 0.0, 0.0, 0.0, 1.77190238529381E9, 0.0, 2026-02-23 19:06:25.293
65.0, 38204.22747185558, -16467.7371344253, -10524.94472562608, 88866.46793681002, -7906.236696986759, -5150.557178325317, 71347.32709495153, -16527.639809565524, 0.008, 0.03, 0.97, 192.0, 0.0, 0.0, 0.0, 0.0, 0.0, 0.0, 0.0, 0.0, 0.0, 1.771902385297851E9, 0.0, 2026-02-23 19:06:25.297
66.0, 38212.07293415939, -16459.534044210202, -10547.005897403467, 88863.24928560846, -7805.251515537681, -5173.065384991812, 71348.26586821864, -16519.682588539432, 0.01, 0.032, 0.964, 192.0, 0.0, 80.0, 1.0, 0.0, 30.0, 32.0, 0.0, 0.0, 0.0, 1.7719023853008409E9, 0.0, 2026-02-23 19:06:25.300
67.0, 38247.72396656561, -16435.617677643022, -10555.23133936302, 88860.79059371837, -7791.9745793312295, -5181.760213584926, 71352.37858919843, -16496.012091161265, 0.01, 0.032, 0.964, 192.0, 0.0, 0.0, 0.0, 0.0, 0.0, 0.0, 0.0, 0.0, 0.0, 1.7719023853049047E9, 0.0, 2026-02-23 19:06:25.304
68.0, 38253.46836489062, -16432.421378185914, -10534.913603653145, 88855.20265760455, -7774.093183766983, -5162.336547653264, 71351.59627814249, -16492.681681237424, 0.01, 0.032, 0.964, 192.0, 0.0, 0.0, 0.0, 0.0, 0.0, 0.0, 0.0, 0.0, 0.0, 1.7719023853089216E9, 0.0, 2026-02-23 19:06:25.308
69.0, 38226.579216310885, -16449.743980138777, -10522.41897850263, 88848.96652090151, -7764.928968540307, -5151.898282992635, 71347.59531588499, -16509.758414001277, 0.01, 0.032, 0.964, 192.0, 0.0, 0.0, 0.0, 0.0, 0.0, 0.0, 0.0, 0.0, 0.0, 1.7719023853128889E9, 0.0, 2026-02-23 19:06:25.312
70.0, 38226.869788988806, -16447.933488837898, -10541.79794094538, 88845.59140748876, -7782.340977470992, -5170.629044846183, 71347.86353681845, -16508.149088400496, 0.01, 0.032, 0.964, 192.0, 0.0, 0.0, 0.0, 0.0, 0.0, 0.0, 0.0, 0.0, 0.0, 1.7719023853168976E9, 0.0, 2026-02-23 19:06:25.316
71.0, 38263.14667023977, -16425.671151360413, -10556.61714751925, 88844.965558644, -7792.689835153799, -5181.73786184047, 71353.56323165455, -16486.132620112017, 0.01, 0.032, 0.964, 192.0, 0.0, 0.0, 0.0, 0.0, 0.0, 0.0, 0.0, 0.0, 0.0, 1.7719023853219376E9, 0.0, 2026-02-23 19:06:25.321
72.0, 38277.34002796889, -16418.78681406818, -10540.166263600144, 88841.18811383106, -7772.886189566397, -5159.922559252091, 71355.17255725534, -16479.20357933087, 0.01, 0.032, 0.964, 192.0, 0.0, 0.0, 0.0, 0.0, 0.0, 0.0, 0.0, 0.0, 0.0, 1.7719023853259583E9, 0.0, 2026-02-23 19:06:25.325
73.0, 38251.613170100834, -16436.288229976682, -10521.100225579767, 88834.84021840575, -7755.921215524819, -5144.768076511393, 71351.30570546458, -16496.45912605037, 0.01, 0.032, 0.964, 192.0, 0.0, 0.0, 0.0, 0.0, 0.0, 0.0, 0.0, 0.0, 0.0, 1.7719023853289578E9, 0.0, 2026-02-23 19:06:25.328
74.0, 38242.6277688298, -16438.92573582241, -10536.478225765017, 88829.36404101421, -7773.199113988771, -5164.6834808210715, 71348.82466183003, -16499.141335385008, 0.01, 0.032, 0.964, 192.0, 0.0, 0.0, 0.0, 0.0, 0.0, 0.0, 0.0, 0.0, 0.0, 1.7719023853329637E9, 0.0, 2026-02-23 19:06:25.332
75.0, 38271.170946499224, -16414.227058199296, -10553.957289929067, 88824.11138106721, -7793.382739231914, -5183.123669996699, 71349.5399176526, -16474.621471717535, 0.01, 0.032, 0.964, 192.0, 0.0, 0.0, 0.0, 0.0, 0.0, 0.0, 0.0, 0.0, 0.0, 1.771902385336984E9, 0.0, 2026-02-23 19:06:25.336
76.0, 38292.31569675395, -16402.872372015998, -10539.1380833552, 88820.9150816101, -7781.44690769278, -5167.611559344717, 71352.06566477605, -16463.311489023148, 0.006, 0.03, 0.96, 192.0, 0.0, 48.0, 0.0, 240.0, 30.0, 0.0, 0.0, 0.0, 0.0, 1.7719023853410835E9, 0.0, 2026-02-23 19:06:25.341
77.0, 38272.310885466446, -16419.904401290943, -10514.528812709907, 88816.64589841914, -7758.178741714805, -5140.923576465079, 71350.590449642, -16480.16470434245, 0.006, 0.03, 0.96, 192.0, 0.0, 0.0, 0.0, 0.0, 0.0, 0.0, 0.0, 0.0, 0.0, 1.7719023853450928E9, 0.0, 2026-02-23 19:06:25.345
78.0, 38255.032987002494, -16424.575915882102, -10521.99429535798, 88808.77808437086, -7765.040727262584, -5150.534826580862, 71345.27073446164, -16484.813867189154, 0.006, 0.03, 0.96, 192.0, 0.0, 0.0, 0.0, 0.0, 0.0, 0.0, 0.0, 0.0, 0.0, 1.7719023853493674E9, 0.0, 2026-02-23 19:06:25.349
79.0, 38282.436225704696, -16403.319406905106, -10543.47432177953, 88805.71589538049, -7784.374986216425, -5171.433707646574, 71347.841185074, -16463.758523912256, 0.006, 0.03, 0.96, 192.0, 0.0, 0.0, 0.0, 0.0, 0.0, 0.0, 0.0, 0.0, 0.0, 1.7719023853541267E9, 0.0, 2026-02-23 19:06:25.354
80.0, 38312.18639757471, -16386.443839841348, -10539.763932199947, 88803.97245931298, -7782.072756537528, -5167.410393644619, 71352.4903479207, -16446.994715570774, 0.006, 0.03, 0.96, 192.0, 0.0, 0.0, 0.0, 0.0, 0.0, 0.0, 0.0, 0.0, 0.0, 1.7719023853570936E9, 0.0, 2026-02-23 19:06:25.357
81.0, 38298.08244682341, -16396.278607401684, -10517.322780766819, 88798.40687494361, -7762.6267388614115, -5147.293823634842, 71350.52339440864, -16456.673020919923, 0.006, 0.03, 0.96, 192.0, 0.0, 0.0, 0.0, 0.0, 0.0, 0.0, 0.0, 0.0, 0.0, 1.7719023853615432E9, 0.0, 2026-02-23 19:06:25.361
82.0, 38278.50231868056, -16405.95691275083, -10521.726074424514, 88792.43895917403, -7761.464448149735, -5148.076134690778, 71347.05887401807, -16466.284271035704, 0.006, 0.03, 0.96, 192.0, 0.0, 0.0, 0.0, 0.0, 0.0, 0.0, 0.0, 0.0, 0.0, 1.7719023853661003E9, 0.0, 2026-02-23 19:06:25.366
83.0, 38300.94347011369, -16389.57308406509, -10546.13417936971, 88790.27083996187, -7785.4031664613685, -5175.635835604172, 71350.05400777508, -16450.123959794517, 0.006, 0.03, 0.96, 192.0, 0.0, 0.0, 0.0, 0.0, 0.0, 0.0, 0.0, 0.0, 0.0, 1.7719023853701057E9, 0.0, 2026-02-23 19:06:25.370
84.0, 38332.839409451415, -16367.176636120874, -10548.65992649316, 88786.47104340447, -7788.822983363031, -5181.246123462453, 71352.6915136208, -16427.883974061486, 0.006, 0.03, 0.96, 192.0, 0.0, 0.0, 0.0, 0.0, 0.0, 0.0, 0.0, 0.0, 0.0, 1.771902385373149E9, 0.0, 2026-02-23 19:06:25.373
85.0, 38326.8491419374, -16372.831627468066, -10526.397589015674, 88781.64306660212, -7768.594654630978, -5159.87785576318, 71351.93155430933, -16433.471910175314, 0.006, 0.03, 0.96, 192.0, 0.0, 0.0, 0.0, 0.0, 0.0, 0.0, 0.0, 0.0, 0.0, 1.7719023853781493E9, 0.0, 2026-02-23 19:06:25.378
86.0, 38306.33024052742, -16385.48271482977, -10524.631801203705, 88776.68097933305, -7763.520808639623, -5155.273396405387, 71349.58462114152, -16445.988887070285, 0.01, 0.032, 0.962, 192.0, 0.0, 80.0, 1.0, 0.0, 30.0, 16.0, 0.0, 0.0, 0.0, 1.7719023853812673E9, 0.0, 2026-02-23 19:06:25.381
87.0, 38324.457505280676, -16371.803447223121, -10547.765856714948, 88774.62461884315, -7785.470221694734, -5175.702890837538, 71352.46799617624, -16432.421378185914, 0.01, 0.032, 0.962, 192.0, 0.0, 0.0, 0.0, 0.0, 0.0, 0.0, 0.0, 0.0, 0.0, 1.771902385384152E9, 0.0, 2026-02-23 19:06:25.384
88.0, 38362.142546432326, -16345.249574810217, -10554.381973073718, 88771.58478159724, -7792.466317709246, -5181.447289162551, 71356.22308924474, -16406.04631972865, 0.01, 0.032, 0.962, 192.0, 0.0, 0.0, 0.0, 0.0, 0.0, 0.0, 0.0, 0.0, 0.0, 1.7719023853891792E9, 0.0, 2026-02-23 19:06:25.389
89.0, 38365.562363333986, -16342.924993386865, -10534.734789697504, 88766.22036292797, -7773.333224455503, -5162.381251142175, 71355.73135086673, -16403.67703481639, 0.01, 0.032, 0.962, 192.0, 0.0, 0.0, 0.0, 0.0, 0.0, 0.0, 0.0, 0.0, 0.0, 1.7719023853931985E9, 0.0, 2026-02-23 19:06:25.393
90.0, 38343.7023572567, -16356.201929593317, -10528.610411716749, 88760.72183379196, -7766.940625541285, -5154.960471983012, 71352.84797583199, -16416.819860556112, 0.01, 0.032, 0.962, 192.0, 0.0, 0.0, 0.0, 0.0, 0.0, 0.0, 0.0, 0.0, 0.0, 1.7719023853972347E9, 0.0, 2026-02-23 19:06:25.397
91.0, 38353.15714516129, -16345.920127143876, -10547.542339270394, 88757.41377561257, -7786.54310542859, -5175.144097226155, 71354.03261828813, -16406.716872062312, 0.01, 0.032, 0.962, 192.0, 0.0, 0.0, 0.0, 0.0, 0.0, 0.0, 0.0, 0.0, 0.0, 1.7719023854012413E9, 0.0, 2026-02-23 19:06:25.401
92.0, 38392.69738110273, -16318.203964019296, -10557.578272530827, 88755.17860116705, -7795.886134610908, -5186.163507242622, 71358.63707764591, -16379.090115915551, 0.01, 0.032, 0.962, 192.0, 0.0, 0.0, 0.0, 0.0, 0.0, 0.0, 0.0, 0.0, 0.0, 1.7719023854052489E9, 0.0, 2026-02-23 19:06:25.405
93.0, 38404.007363797115, -16308.659769136879, -10539.093379866288, 88749.23303714192, -7777.982387302207, -5168.930312267579, 71358.1453392679, -16369.52356928868, 0.01, 0.032, 0.962, 192.0, 0.0, 0.0, 0.0, 0.0, 0.0, 0.0, 0.0, 0.0, 0.0, 1.7719023854092696E9, 0.0, 2026-02-23 19:06:25.409
94.0, 38385.343657176934, -16322.607257676991, -10523.000123858468, 88745.00855743988, -7766.426535418813, -5157.35210863973, 71356.80423460058, -16383.359299106516, 0.01, 0.032, 0.962, 192.0, 0.0, 0.0, 0.0, 0.0, 0.0, 0.0, 0.0, 0.0, 0.0, 1.7719023854123037E9, 0.0, 2026-02-23 19:06:25.412
95.0, 38386.84122405544, -16316.41582446287, -10541.41796128964, 88740.40409808209, -7782.385680959903, -5177.043995504856, 71356.17838575583, -16377.257272870216, 0.01, 0.032, 0.962, 192.0, 0.0, 0.0, 0.0, 0.0, 0.0, 0.0, 0.0, 0.0, 0.0, 1.7719023854163053E9, 0.0, 2026-02-23 19:06:25.416
96.0, 38424.92859660728, -16289.07964099403, -10556.594795774794, 88738.07951665873, -7798.456585223268, -5197.294675981364, 71360.4475689468, -16349.988144634743, 0.008, 0.034, 0.966, 192.0, 0.0, 64.0, 1.0, 16.0, 30.0, 48.0, 0.0, 0.0, 0.0, 1.771902385421294E9, 0.0, 2026-02-23 19:06:25.421
97.0, 38445.89453290636, -16277.45673387727, -10543.1390456127, 88735.06203115727, -7782.2292187487155, -5179.88266705068, 71363.28624049261, -16338.298182284616, 0.008, 0.034, 0.966, 192.0, 0.0, 0.0, 0.0, 0.0, 0.0, 0.0, 0.0, 0.0, 0.0, 1.7719023854253173E9, 0.0, 2026-02-23 19:06:25.425
98.0, 38426.56027395252, -16289.325510183038, -10525.70468493756, 88728.58002526523, -7765.1524859848605, -5155.5863208277615, 71359.79936835759, -16350.166958590384, 0.008, 0.034, 0.966, 192.0, 0.0, 0.0, 0.0, 0.0, 0.0, 0.0, 0.0, 0.0, 0.0, 1.7719023854293563E9, 0.0, 2026-02-23 19:06:25.429
99.0, 38418.37953548188, -16288.923178782843, -10537.595812987784, 88722.29918507328, -7778.272959980126, -5166.046937232845, 71356.80423460058, -16349.854034168011, 0.008, 0.034, 0.966, 192.0, 0.0, 0.0, 0.0, 0.0, 0.0, 0.0, 0.0, 0.0, 0.0, 1.7719023854333642E9, 0.0, 2026-02-23 19:06:25.433
100.0, 38452.35418705394, -16266.012640716153, -10556.70655449707, 88720.57810075022, -7793.606256676467, -5186.297617709353, 71361.11812128045, -16327.099958312507, 0.008, 0.034, 0.966, 192.0, 0.0, 0.0, 0.0, 0.0, 0.0, 0.0, 0.0, 0.0, 0.0, 1.771902385436364E9, 0.0, 2026-02-23 19:06:25.436
101.0, 38477.768120499626, -16250.880509719911, -10549.106961382266, 88717.0912286152, -7779.7705268586315, -5177.0216437604, 71363.50975793716, -16312.034882549631, 0.008, 0.034, 0.966, 192.0, 0.0, 0.0, 0.0, 0.0, 0.0, 0.0, 0.0, 0.0, 0.0, 1.771902385440393E9, 0.0, 2026-02-23 19:06:25.440
102.0, 38461.697216236265, -16262.928099981322, -10530.286792550898, 88711.01155412335, -7762.425573161313, -5158.916730751602, 71360.42521720234, -16324.03776932213, 0.008, 0.034, 0.966, 192.0, 0.0, 0.0, 0.0, 0.0, 0.0, 0.0, 0.0, 0.0, 0.0, 1.77190238544441E9, 0.0, 2026-02-23 19:06:25.444
103.0, 38446.855657917935, -16270.773562285134, -10536.299411809376, 88705.58008022071, -7767.588826130489, -5163.856466276225, 71357.69830437879, -16331.883231625943, 0.008, 0.034, 0.966, 192.0, 0.0, 0.0, 0.0, 0.0, 0.0, 0.0, 0.0, 0.0, 0.0, 1.771902385448457E9, 0.0, 2026-02-23 19:06:25.448
104.0, 38471.93431519679, -16251.238137631195, -10557.868845208746, 88701.66852494104, -7788.0406723070955, -5184.621236875205, 71359.01705730165, -16312.392510460915, 0.008, 0.034, 0.966, 192.0, 0.0, 0.0, 0.0, 0.0, 0.0, 0.0, 0.0, 0.0, 0.0, 1.7719023854534645E9, 0.0, 2026-02-23 19:06:25.453
105.0, 38501.57272834453, -16235.323695579016, -10553.80082771788, 88699.00866735085, -7789.560590930056, -5184.308312452831, 71362.3921707144, -16296.478068408736, 0.004, 0.034, 0.972, 192.0, 0.0, 32.0, 1.0, 16.0, 30.0, 96.0, 0.0, 0.0, 0.0, 1.7719023854574533E9, 0.0, 2026-02-23 19:06:25.457
106.0, 38491.02270496162, -16248.131245151908, -10530.622068717727, 88694.71713241543, -7769.287558709092, -5164.191742443054, 71361.38634221391, -16309.151507514896, 0.004, 0.034, 0.972, 192.0, 0.0, 0.0, 0.0, 0.0, 0.0, 0.0, 0.0, 0.0, 0.0, 1.7719023854634905E9, 0.0, 2026-02-23 19:06:25.463
107.0, 38467.03928316108, -16260.759980769157, -10530.711475695549, 88686.82696662271, -7770.740422098687, -5165.175219199088, 71355.46312993325, -16321.579077432047, 0.004, 0.034, 0.972, 192.0, 0.0, 0.0, 0.0, 0.0, 0.0, 0.0, 0.0, 0.0, 0.0, 1.7719023854665189E9, 0.0, 2026-02-23 19:06:25.466
108.0, 38482.57374555752, -16247.103064906963, -10551.163321872154, 88681.39549272007, -7793.11451829845, -5187.214039232021, 71354.41259794385, -16307.98921680322, 0.004, 0.034, 0.972, 192.0, 0.0, 0.0, 0.0, 0.0, 0.0, 0.0, 0.0, 0.0, 0.0, 1.771902385469483E9, 0.0, 2026-02-23 19:06:25.469
109.0, 38513.73207732822, -16231.21097459924, -10551.342135827797, 88678.80269036326, -7794.656788665866, -5186.319969453808, 71357.56419391205, -16292.253588706684, 0.004, 0.034, 0.972, 192.0, 0.0, 0.0, 0.0, 0.0, 0.0, 0.0, 0.0, 0.0, 0.0, 1.7719023854725046E9, 0.0, 2026-02-23 19:06:25.472
110.0, 38505.797208046584, -16240.26343110364, -10527.649286705171, 88672.14187051558, -7770.718070354233, -5159.363765640708, 71354.32319096604, -16301.283693466628, 0.004, 0.034, 0.972, 192.0, 0.0, 0.0, 0.0, 0.0, 0.0, 0.0, 0.0, 0.0, 0.0, 1.7719023854766233E9, 0.0, 2026-02-23 19:06:25.476
111.0, 38475.68940826529, -16258.077771434519, -10523.670676192127, 88662.73178609989, -7761.330337683004, -5148.612576557705, 71346.3883216844, -16319.030978564142, 0.004, 0.034, 0.972, 192.0, 0.0, 0.0, 0.0, 0.0, 0.0, 0.0, 0.0, 0.0, 0.0, 1.7719023854815617E9, 0.0, 2026-02-23 19:06:25.481
112.0, 38484.071312436026, -16254.54619581058, -10544.077818879821, 88658.75317558684, -7780.485782681201, -5167.388041900163, 71345.80717632857, -16315.633513406936, 0.004, 0.034, 0.972, 192.0, 0.0, 0.0, 0.0, 0.0, 0.0, 0.0, 0.0, 0.0, 0.0, 1.7719023854855745E9, 0.0, 2026-02-23 19:06:25.485
113.0, 38511.3404406715, -16235.994247912677, -10547.519987525939, 88652.0253005058, -7786.073718795028, -5171.344300668753, 71344.44371991679, -16296.969806786754, 0.004, 0.034, 0.972, 192.0, 0.0, 0.0, 0.0, 0.0, 0.0, 0.0, 0.0, 0.0, 0.0, 1.7719023854885857E9, 0.0, 2026-02-23 19:06:25.488
114.0, 38510.2899086821, -16244.286745105595, -10528.722170439027, 88646.30325392525, -7767.991157530685, -5153.418201615596, 71342.14149023789, -16305.284655724128, 0.004, 0.034, 0.972, 192.0, 0.0, 0.0, 0.0, 0.0, 0.0, 0.0, 0.0, 0.0, 0.0, 1.771902385492587E9, 0.0, 2026-02-23 19:06:25.492
115.0, 38481.612620545944, -16270.259472162661, -10523.201289558565, 88639.93300675548, -7756.837637047486, -5145.751553267426, 71336.79942331307, -16331.167975803373, 0.004, 0.04, 0.974, 192.0, 0.0, 32.0, 1.0, 64.0, 30.0, 112.0, 0.0, 0.0, 0.0, 1.7719023854966154E9, 0.0, 2026-02-23 19:06:25.496
116.0, 38479.84683273397, -16273.478123364226, -10540.836815933802, 88633.74157354135, -7771.165105243338, -5162.135381953166, 71333.15608896686, -16334.476033982759, 0.004, 0.04, 0.974, 192.0, 0.0, 0.0, 0.0, 0.0, 0.0, 0.0, 0.0, 0.0, 0.0, 1.7719023855006204E9, 0.0, 2026-02-23 19:06:25.500
117.0, 38505.75250455767, -16258.323640623528, -10549.777513715926, 88627.63954730507, -7777.200076246271, -5172.171315213599, 71331.90439127736, -16319.388606475426, 0.004, 0.04, 0.974, 192.0, 0.0, 0.0, 0.0, 0.0, 0.0, 0.0, 0.0, 0.0, 0.0, 1.7719023855046372E9, 0.0, 2026-02-23 19:06:25.504
118.0, 38509.75346681517, -16267.286690150106, -10534.354810041763, 88624.06326819221, -7755.161256213339, -5151.227730658977, 71331.77028081063, -16328.23989727973, 0.004, 0.04, 0.974, 192.0, 0.0, 0.0, 0.0, 0.0, 0.0, 0.0, 0.0, 0.0, 0.0, 1.7719023855096707E9, 0.0, 2026-02-23 19:06:25.509
119.0, 38473.633047775395, -16296.142792241908, -10519.088568578789, 88616.35191635512, -7735.8046455150425, -5132.6981345055265, 71324.72948130721, -16357.006592393709, 0.004, 0.04, 0.974, 192.0, 0.0, 0.0, 0.0, 0.0, 0.0, 0.0, 0.0, 0.0, 0.0, 1.7719023855137517E9, 0.0, 2026-02-23 19:06:25.513
120.0, 38453.80705044354, -16307.117498769463, -10537.193481587587, 88607.70179125092, -7749.260395677137, -5150.847751003236, 71317.62162657043, -16367.981298921264, 0.004, 0.04, 0.974, 192.0, 0.0, 0.0, 0.0, 0.0, 0.0, 0.0, 0.0, 0.0, 0.0, 1.7719023855167253E9, 0.0, 2026-02-23 19:06:25.516
121.0, 38469.83325121799, -16296.522771897648, -10556.415981819151, 88601.13037838106, -7765.82303831852, -5169.444402390051, 71315.27469340262, -16357.47597902727, 0.004, 0.04, 0.974, 192.0, 0.0, 0.0, 0.0, 0.0, 0.0, 0.0, 0.0, 0.0, 0.0, 1.7719023855206797E9, 0.0, 2026-02-23 19:06:25.520
122.0, 38471.263762863135, -16300.344920199504, -10544.770722957937, 88593.95546841092, -7748.209863687738, -5153.462905104507, 71311.58665556749, -16361.164016862396, 0.004, 0.04, 0.974, 192.0, 0.0, 0.0, 0.0, 0.0, 0.0, 0.0, 0.0, 0.0, 0.0, 1.7719023855247867E9, 0.0, 2026-02-23 19:06:25.524
123.0, 38434.29397753406, -16331.27973452565, -10526.352885526763, 88586.46763401838, -7728.830901244986, -5135.469750817985, 71304.76937350862, -16391.964720721808, 0.004, 0.04, 0.974, 192.0, 0.0, 0.0, 0.0, 0.0, 0.0, 0.0, 0.0, 0.0, 0.0, 1.7719023855287552E9, 0.0, 2026-02-23 19:06:25.528
124.0, 38406.399000453835, -16349.943441145831, -10540.434484533607, 88579.1586135815, -7744.119494452417, -5150.266605647398, 71298.42147808331, -16410.650779086445, 0.004, 0.04, 0.974, 192.0, 0.0, 0.0, 0.0, 0.0, 0.0, 0.0, 0.0, 0.0, 0.0, 1.7719023855327306E9, 0.0, 2026-02-23 19:06:25.532
125.0, 38421.82170412799, -16340.622763707968, -10564.395554589695, 88575.47057574637, -7760.212750460238, -5168.6173878452055, 71298.91321646133, -16401.419508626404, 0.006, 0.034, 0.966, 192.0, 0.0, 48.0, 1.0, 16.0, 30.0, 48.0, 0.0, 0.0, 0.0, 1.7719023855367885E9, 0.0, 2026-02-23 19:06:25.536
126.0, 38434.070460089504, -16334.61014444949, -10557.935900442113, 88569.97204661036, -7747.919291009819, -5159.6990418075375, 71298.26501587212, -16395.429241112382, 0.006, 0.034, 0.966, 192.0, 0.0, 0.0, 0.0, 0.0, 0.0, 0.0, 0.0, 0.0, 0.0, 1.7719023855417745E9, 0.0, 2026-02-23 19:06:25.541
127.0, 38388.919936289785, -16377.95017694833, -10519.960286612546, 88560.09257556112, -7748.6568985768445, -5118.39301805413, 71287.6702890003, -16438.54575616667, 0.006, 0.034, 0.966, 192.0, 0.0, 0.0, 0.0, 0.0, 0.0, 0.0, 0.0, 0.0, 0.0, 1.7719023855448098E9, 0.0, 2026-02-23 19:06:25.544
128.0, 38348.865610225876, -16407.208610440328, -10542.714362468048, 88552.33652023513, -7775.076660523017, -5138.487236319451, 71279.35544006294, -16467.82654140312, 0.006, 0.034, 0.966, 192.0, 0.0, 0.0, 0.0, 0.0, 0.0, 0.0, 0.0, 0.0, 0.0, 1.7719023855489116E9, 0.0, 2026-02-23 19:06:25.548
129.0, 38383.5108141316, -16372.228130367772, -10594.86098228228, 88554.01290106928, -7773.82496283352, -5188.443385177063, 71288.63141401189, -16433.091930519575, 0.006, 0.034, 0.966, 192.0, 0.0, 0.0, 0.0, 0.0, 0.0, 0.0, 0.0, 0.0, 0.0, 1.7719023855528464E9, 0.0, 2026-02-23 19:06:25.552
130.0, 38422.49225646165, -16338.767568918178, -10583.908627499179, 88552.09065104612, -7760.704488838254, -5176.26168444892, 71295.53810304857, -16399.63136906998, 0.006, 0.034, 0.966, 192.0, 0.0, 0.0, 0.0, 0.0, 0.0, 0.0, 0.0, 0.0, 0.0, 1.7719023855568268E9, 0.0, 2026-02-23 19:06:25.556
131.0, 38384.94132577674, -16376.43025832537, -10527.55987972735, 88541.0041857963, -7823.535242502123, -5118.460073287496, 71284.7198587322, -16437.137596265984, 0.006, 0.034, 0.966, 192.0, 0.0, 0.0, 0.0, 0.0, 0.0, 0.0, 0.0, 0.0, 0.0, 1.7719023855609028E9, 0.0, 2026-02-23 19:06:25.560
132.0, 38327.22912159313, -16416.953971022842, -10531.046751862377, 88527.63784261202, -7924.9898105847615, -5120.985820410946, 71269.23009982468, -16477.50484675227, 0.006, 0.034, 0.966, 192.0, 0.0, 0.0, 0.0, 0.0, 0.0, 0.0, 0.0, 0.0, 0.0, 1.7719023855649111E9, 0.0, 2026-02-23 19:06:25.564
133.0, 38346.049290424504, -16394.08813644506, -10586.210857178075, 88527.391973423, -7780.955169314763, -5174.920579781602, 71274.63922198287, -16454.840177874587, 0.006, 0.034, 0.966, 192.0, 0.0, 0.0, 0.0, 0.0, 0.0, 0.0, 0.0, 0.0, 0.0, 1.7719023855688913E9, 0.0, 2026-02-23 19:06:25.568
134.0, 38384.00255250961, -16363.510950030202, -10583.260426909976, 88526.00616526678, -7754.960090513241, -5169.243236689954, 71281.25533834164, -16424.419453670915, 0.006, 0.034, 0.966, 192.0, 0.0, 0.0, 0.0, 0.0, 0.0, 0.0, 0.0, 0.0, 0.0, 1.7719023855729072E9, 0.0, 2026-02-23 19:06:25.572
135.0, 38340.23783686612, -16404.973435994798, -10520.720245924025, 88510.35994414806, -7849.17269339236, -5104.669046958572, 71265.02797186708, -16465.45725649086, 0.008, 0.038, 0.972, 192.0, 0.0, 64.0, 1.0, 48.0, 30.0, 96.0, 0.0, 0.0, 0.0, 1.7719023855759456E9, 0.0, 2026-02-23 19:06:25.575
136.0, 38256.86583004783, -16473.88386415051, -10507.398606228662, 88492.8361764951, -8016.743721573797, -5089.313398517776, 71241.96097158921, -16533.31715265717, 0.008, 0.038, 0.972, 192.0, 0.0, 0.0, 0.0, 0.0, 0.0, 0.0, 0.0, 0.0, 0.0, 1.7719023855809293E9, 0.0, 2026-02-23 19:06:25.580
137.0, 38244.61707408632, -16477.862474663554, -10561.936862699613, 88488.94697295988, -8008.652390080976, -5145.103352678222, 71239.90461109932, -16537.94396375942, 0.008, 0.038, 0.972, 192.0, 0.0, 0.0, 0.0, 0.0, 0.0, 0.0, 0.0, 0.0, 0.0, 1.7719023855850046E9, 0.0, 2026-02-23 19:06:25.585
138.0, 38276.31184772395, -16450.21336677234, -10578.52185708545, 88488.43288283741, -7850.066763170572, -5163.364727898208, 71246.61013443592, -16510.808945990677, 0.008, 0.038, 0.972, 192.0, 0.0, 0.0, 0.0, 0.0, 0.0, 0.0, 0.0, 0.0, 0.0, 1.771902385588967E9, 0.0, 2026-02-23 19:06:25.588
139.0, 38243.767707797015, -16482.73515495481, -10521.882536635701, 88476.42999606491, -7985.808907247652, -5107.172442337566, 71234.92017208578, -16539.88856552703, 0.008, 0.038, 0.972, 192.0, 0.0, 0.0, 0.0, 0.0, 0.0, 0.0, 0.0, 0.0, 0.0, 1.771902385592978E9, 0.0, 2026-02-23 19:06:25.592
140.0, 38156.238276510034, -16552.114969744085, -10499.50844043594, 88457.60982723354, -8024.946811788895, -5086.273561271854, 71208.63452060634, -16584.457943970912, 0.008, 0.038, 0.972, 192.0, 0.0, 0.0, 0.0, 0.0, 0.0, 0.0, 0.0, 0.0, 0.0, 1.771902385597191E9, 0.0, 2026-02-23 19:06:25.597
141.0, 38133.30538669889, -16560.541577403736, -10559.388763831706, 88452.24540856427, -8084.424803784466, -5145.662146289605, 71204.99118626013, -16603.38987152456, 0.008, 0.038, 0.972, 192.0, 0.0, 0.0, 0.0, 0.0, 0.0, 0.0, 0.0, 0.0, 0.0, 1.7719023856010635E9, 0.0, 2026-02-23 19:06:25.601
142.0, 38175.974866864075, -16517.626228049547, -10591.865848525269, 88454.81585917663, -8120.142891424048, -5179.100355994744, 71217.59757013293, -16577.260682256303, 0.008, 0.038, 0.972, 192.0, 0.0, 0.0, 0.0, 0.0, 0.0, 0.0, 0.0, 0.0, 0.0, 1.7719023856041465E9, 0.0, 2026-02-23 19:06:25.604
143.0, 38169.26934352748, -16522.56596357417, -10543.89900492418, 88446.38925151697, -8073.137172834537, -5130.887643204647, 71212.83664856394, -16578.981766579363, 0.008, 0.038, 0.972, 192.0, 0.0, 0.0, 0.0, 0.0, 0.0, 0.0, 0.0, 0.0, 0.0, 1.7719023856081707E9, 0.0, 2026-02-23 19:06:25.608
144.0, 38092.93813621261, -16583.653281170522, -10505.342245738775, 88429.2231117753, -8032.077018270138, -5089.9615991069795, 71189.47907560815, -16606.22854307038, 0.008, 0.038, 0.972, 192.0, 0.0, 0.0, 0.0, 0.0, 0.0, 0.0, 0.0, 0.0, 0.0, 1.7719023856131816E9, 0.0, 2026-02-23 19:06:25.613
145.0, 38064.14908935417, -16600.551199978734, -10550.9398044276, 88424.79746637314, -8074.165353079481, -5134.173349639577, 71185.16518892828, -16616.867973431108, 0.006, 0.036000000000000004, 0.97, 192.0, 0.0, 48.0, 1.0, 32.0, 30.0, 80.0, 0.0, 0.0, 0.0, 1.7719023856171567E9, 0.0, 2026-02-23 19:06:25.617
146.0, 38111.95947074407, -16554.573661634167, -10598.794889306413, 88430.56421644261, -8120.858147246618, -5182.631931618683, 71202.57719785896, -16608.687234960467, 0.006, 0.036000000000000004, 0.97, 192.0, 0.0, 0.0, 0.0, 0.0, 0.0, 0.0, 0.0, 0.0, 0.0, 1.7719023856210978E9, 0.0, 2026-02-23 19:06:25.621
147.0, 38126.197531962105, -16541.363780661082, -10563.635595278216, 88425.4680187068, -8085.274170073769, -5145.349221867231, 71204.03006124856, -16597.75723192182, 0.006, 0.036000000000000004, 0.97, 192.0, 0.0, 0.0, 0.0, 0.0, 0.0, 0.0, 0.0, 0.0, 0.0, 1.7719023856241615E9, 0.0, 2026-02-23 19:06:25.624
148.0, 38059.857554418755, -16596.28201678777, -10512.025417330911, 88409.33005921007, -8033.060495026171, -5088.285218272832, 71182.84060750493, -16614.7222059634, 0.006, 0.036000000000000004, 0.97, 192.0, 0.0, 0.0, 0.0, 0.0, 0.0, 0.0, 0.0, 0.0, 0.0, 1.771902385628179E9, 0.0, 2026-02-23 19:06:25.628
149.0, 38019.11032427673, -16623.931124678984, -10546.022420647434, 88402.35631494001, -8066.677518686953, -5121.388151811141, 71174.01166844508, -16616.73386296438, 0.006, 0.036000000000000004, 0.97, 192.0, 0.0, 0.0, 0.0, 0.0, 0.0, 0.0, 0.0, 0.0, 0.0, 1.7719023856322203E9, 0.0, 2026-02-23 19:06:25.632
150.0, 38062.27154281992, -16578.981766579363, -10599.621903851259, 88407.0725330201, -8119.293525134746, -5179.860315306225, 71189.88140700835, -16617.873801931597, 0.006, 0.036000000000000004, 0.97, 192.0, 0.0, 0.0, 0.0, 0.0, 0.0, 0.0, 0.0, 0.0, 0.0, 1.7719023856362684E9, 0.0, 2026-02-23 19:06:25.636
151.0, 38092.53580481241, -16549.589222620634, -10573.559769816371, 88404.39032368545, -8092.65024574402, -5153.9993469714345, 71196.43046813375, -16606.22854307038, 0.006, 0.036000000000000004, 0.97, 192.0, 0.0, 0.0, 0.0, 0.0, 0.0, 0.0, 0.0, 0.0, 0.0, 1.77190238564124E9, 0.0, 2026-02-23 19:06:25.641
152.0, 38037.0811268188, -16594.67269118699, -10519.915583123635, 88388.63234384447, -8038.82724509564, -5097.8294131552475, 71177.18561615773, -16617.873801931597, 0.006, 0.036000000000000004, 0.97, 192.0, 0.0, 0.0, 0.0, 0.0, 0.0, 0.0, 0.0, 0.0, 0.0, 1.7719023856452453E9, 0.0, 2026-02-23 19:06:25.645
153.0, 37984.59923083773, -16631.083682904682, -10541.37325780073, 88378.4623001173, -8058.563835449677, -5118.571832009773, 71163.7522177401, -16623.5734967677, 0.006, 0.036000000000000004, 0.97, 192.0, 0.0, 0.0, 0.0, 0.0, 0.0, 0.0, 0.0, 0.0, 0.0, 1.7719023856492355E9, 0.0, 2026-02-23 19:06:25.649
154.0, 38022.53014117839, -16592.66103418601, -10603.064072497376, 88384.51962286468, -8117.192461155947, -5180.173239728599, 71179.800770259, -16624.53462177928, 0.006, 0.034, 0.97, 192.0, 0.0, 48.0, 1.0, 16.0, 30.0, 80.0, 0.0, 0.0, 0.0, 1.7719023856522596E9, 0.0, 2026-02-23 19:06:25.652
155.0, 38069.96054291255, -16550.32683018766, -10596.894991027713, 88386.37481765448, -8109.346998852134, -5174.965283270512, 71192.89889250981, -16608.95545589393, 0.006, 0.034, 0.97, 192.0, 0.0, 0.0, 0.0, 0.0, 0.0, 0.0, 0.0, 0.0, 0.0, 1.7719023856563199E9, 0.0, 2026-02-23 19:06:25.656
156.0, 38030.1744377821, -16581.239292769347, -10535.360638542252, 88371.57796282506, -8049.645489412009, -5113.788558696337, 71177.36443011338, -16619.706644976934, 0.006, 0.034, 0.97, 192.0, 0.0, 0.0, 0.0, 0.0, 0.0, 0.0, 0.0, 0.0, 0.0, 1.771902385660302E9, 0.0, 2026-02-23 19:06:25.660
157.0, 37971.50110858693, -16625.071063646206, -10534.690086208593, 88360.11151791949, -8049.332564989635, -5113.2074133404985, 71161.27117410555, -16624.355807823635, 0.006, 0.034, 0.97, 192.0, 0.0, 0.0, 0.0, 0.0, 0.0, 0.0, 0.0, 0.0, 0.0, 1.771902385664307E9, 0.0, 2026-02-23 19:06:25.664
158.0, 37996.04332399885, -16590.269397529293, -10596.71617707207, 88361.54202956463, -8112.140966909047, -5177.043995504856, 71171.21770038817, -16620.913639177517, 0.006, 0.034, 0.97, 192.0, 0.0, 0.0, 0.0, 0.0, 0.0, 0.0, 0.0, 0.0, 0.0, 1.7719023856684337E9, 0.0, 2026-02-23 19:06:25.668
159.0, 38057.398862528666, -16537.385170148038, -10606.439185910129, 88367.7558145232, -8120.992257713349, -5185.627065375694, 71190.306090153, -16596.460830743414, 0.006, 0.034, 0.97, 192.0, 0.0, 0.0, 0.0, 0.0, 0.0, 0.0, 0.0, 0.0, 0.0, 1.7719023856733527E9, 0.0, 2026-02-23 19:06:25.673
160.0, 38039.785687897886, -16554.774827334266, -10547.519987525939, 88358.47984057425, -8060.731954661841, -5124.852672201714, 71183.28764239403, -16605.75915643682, 0.006, 0.034, 0.97, 192.0, 0.0, 0.0, 0.0, 0.0, 0.0, 0.0, 0.0, 0.0, 0.0, 1.771902385677358E9, 0.0, 2026-02-23 19:06:25.677
161.0, 37977.357265634215, -16600.394737767547, -10533.281926307909, 88344.04061365612, -8048.058515555682, -5113.565041251783, 71164.22160437366, -16619.594886254657, 0.006, 0.034, 0.97, 192.0, 0.0, 0.0, 0.0, 0.0, 0.0, 0.0, 0.0, 0.0, 0.0, 1.77190238568056E9, 0.0, 2026-02-23 19:06:25.680
162.0, 37992.93643151956, -16575.874874100075, -10593.162249703677, 88345.4040700679, -8097.902905691017, -5179.346225183753, 71172.6482120333, -16617.38206355358, 0.006, 0.034, 0.97, 192.0, 0.0, 0.0, 0.0, 0.0, 0.0, 0.0, 0.0, 0.0, 0.0, 1.7719023856843345E9, 0.0, 2026-02-23 19:06:25.684
163.0, 38062.74092945349, -16512.06064368017, -10615.871622070268, 88352.28840736013, -8052.752381891297, -5203.17318477311, 71192.69772680971, -16572.23153975386, 0.006, 0.034, 0.97, 192.0, 0.0, 0.0, 0.0, 0.0, 0.0, 0.0, 0.0, 0.0, 0.0, 1.7719023856883507E9, 0.0, 2026-02-23 19:06:25.688
164.0, 38067.34538881128, -16510.943056457407, -10562.13802839971, 88346.02991891265, -8062.743611662819, -5143.695192777538, 71191.51308435359, -16569.83990309714, 0.01, 0.038, 0.974, 192.0, 0.0, 80.0, 1.0, 48.0, 30.0, 112.0, 0.0, 0.0, 0.0, 1.7719023856924272E9, 0.0, 2026-02-23 19:06:25.692
165.0, 38007.30860320433, -16554.685420356444, -10536.008839131457, 88330.09312511601, -8045.3763062210455, -5112.469805773474, 71172.69291552222, -16602.585208724166, 0.01, 0.038, 0.974, 192.0, 0.0, 0.0, 0.0, 0.0, 0.0, 0.0, 0.0, 0.0, 0.0, 1.7719023856964054E9, 0.0, 2026-02-23 19:06:25.696
166.0, 38010.706068361535, -16539.150957960006, -10594.279836926442, 88328.57320649305, -8052.662974913475, -5169.779678556881, 71175.7998080015, -16592.884551630563, 0.01, 0.038, 0.974, 192.0, 0.0, 0.0, 0.0, 0.0, 0.0, 0.0, 0.0, 0.0, 0.0, 1.7719023857013946E9, 0.0, 2026-02-23 19:06:25.701
167.0, 38087.26079312096, -16470.55345422667, -10631.96487807809, 88337.58095950854, -7867.456420356802, -5208.9399348425795, 71197.7045175677, -16531.08197821164, 0.01, 0.038, 0.974, 192.0, 0.0, 0.0, 0.0, 0.0, 0.0, 0.0, 0.0, 0.0, 0.0, 1.771902385705412E9, 0.0, 2026-02-23 19:06:25.705
168.0, 38117.25683417998, -16454.147273796472, -10582.254598409487, 88337.2009798528, -7938.154988068937, -5161.7554022974255, 71204.99118626013, -16514.519335570258, 0.01, 0.038, 0.974, 192.0, 0.0, 0.0, 0.0, 0.0, 0.0, 0.0, 0.0, 0.0, 0.0, 1.7719023857084239E9, 0.0, 2026-02-23 19:06:25.708
169.0, 38067.90418242266, -16495.810925461166, -10536.56763274284, 88324.03580236863, -8045.845692854607, -5116.873099431169, 71190.66371806429, -16555.22186222337, 0.01, 0.038, 0.974, 192.0, 0.0, 0.0, 0.0, 0.0, 0.0, 0.0, 0.0, 0.0, 0.0, 1.7719023857124271E9, 0.0, 2026-02-23 19:06:25.712
170.0, 38061.08690036379, -16491.31822482565, -10583.998034477001, 88320.9959651227, -8005.411387134956, -5164.392908143152, 71190.66371806429, -16551.153844732507, 0.01, 0.038, 0.974, 192.0, 0.0, 0.0, 0.0, 0.0, 0.0, 0.0, 0.0, 0.0, 0.0, 1.7719023857164576E9, 0.0, 2026-02-23 19:06:25.716
171.0, 38137.64162512322, -16419.14444197946, -10637.82103512538, 88328.93083440434, -7826.038637881117, -5215.019609334423, 71211.11556424088, -16479.851779920074, 0.01, 0.038, 0.974, 192.0, 0.0, 0.0, 0.0, 0.0, 0.0, 0.0, 0.0, 0.0, 0.0, 1.7719023857204664E9, 0.0, 2026-02-23 19:06:25.720
172.0, 38186.16726233569, -16381.548807805635, -10602.348816674807, 88328.81907568205, -7782.184515259804, -5175.345262926253, 71220.9056283123, -16442.412607957438, 0.01, 0.038, 0.974, 192.0, 0.0, 0.0, 0.0, 0.0, 0.0, 0.0, 0.0, 0.0, 0.0, 1.7719023857245338E9, 0.0, 2026-02-23 19:06:25.724
173.0, 38148.906904328695, -16417.557468123134, -10549.308127082364, 88317.06205809857, -7945.173435827904, -5118.303611076309, 71209.10390723991, -16478.085992108106, 0.01, 0.038, 0.974, 192.0, 0.0, 0.0, 0.0, 0.0, 0.0, 0.0, 0.0, 0.0, 0.0, 1.7719023857285292E9, 0.0, 2026-02-23 19:06:25.728
174.0, 38130.46671515307, -16424.933543793388, -10581.673453053649, 88311.20590105127, -7919.983019826773, -5151.093620192244, 71204.70061358222, -16485.529123011725, 0.008, 0.04, 0.966, 192.0, 0.0, 64.0, 1.0, 64.0, 30.0, 48.0, 0.0, 0.0, 0.0, 1.771902385733518E9, 0.0, 2026-02-23 19:06:25.733
175.0, 38204.27217534449, -16358.481807527758, -10642.649011927726, 88320.48187500023, -7791.30402699757, -5210.8845366101905, 71225.82301209247, -16419.39031116847, 0.008, 0.04, 0.966, 192.0, 0.0, 0.0, 0.0, 0.0, 0.0, 0.0, 0.0, 0.0, 0.0, 1.7719023857365372E9, 0.0, 2026-02-23 19:06:25.736
176.0, 38270.4333389322, -16306.55870515808, -10620.498433172517, 88323.61111922398, -7757.865817292431, -5188.018702032412, 71240.48575645516, -16367.511912287702, 0.008, 0.04, 0.966, 192.0, 0.0, 0.0, 0.0, 0.0, 0.0, 0.0, 0.0, 0.0, 0.0, 1.771902385739554E9, 0.0, 2026-02-23 19:06:25.739
177.0, 38244.30414966395, -16333.447853737815, -10557.175941130632, 88311.31765977356, -7699.304246819526, -5125.5902797687395, 71229.53340167206, -16394.24459865625, 0.008, 0.04, 0.966, 192.0, 0.0, 0.0, 0.0, 0.0, 0.0, 0.0, 0.0, 0.0, 0.0, 1.7719023857445617E9, 0.0, 2026-02-23 19:06:25.744
178.0, 38213.771666737994, -16356.023115637676, -10572.576293060338, 88302.71223815826, -7715.285744105071, -5139.87304447568, 71221.15149750131, -16416.7751570672, 0.008, 0.04, 0.966, 192.0, 0.0, 0.0, 0.0, 0.0, 0.0, 0.0, 0.0, 0.0, 0.0, 1.771902385748713E9, 0.0, 2026-02-23 19:06:25.748
179.0, 38276.356551212855, -16300.009644032676, -10636.68109615816, 88310.78121790662, -7778.585884402501, -5204.335475484786, 71239.43522446576, -16361.052258140118, 0.008, 0.04, 0.966, 192.0, 0.0, 0.0, 0.0, 0.0, 0.0, 0.0, 0.0, 0.0, 0.0, 1.7719023857527351E9, 0.0, 2026-02-23 19:06:25.752
180.0, 38354.96763646217, -16239.347009580972, -10628.634468154249, 88317.39733426539, -7768.862875564441, -5193.964266057524, 71258.47891074169, -16300.389623688416, 0.008, 0.04, 0.966, 192.0, 0.0, 0.0, 0.0, 0.0, 0.0, 0.0, 0.0, 0.0, 0.0, 1.771902385756712E9, 0.0, 2026-02-23 19:06:25.756
181.0, 38340.97544443315, -16256.669611533835, -10561.199255132587, 88305.77442714864, -7701.204145098227, -5125.411465813097, 71249.58291644847, -16317.689873896823, 0.008, 0.04, 0.966, 192.0, 0.0, 0.0, 0.0, 0.0, 0.0, 0.0, 0.0, 0.0, 0.0, 1.7719023857606535E9, 0.0, 2026-02-23 19:06:25.760
182.0, 38297.90363286777, -16292.164181728862, -10558.092362653299, 88293.99505782069, -7695.415043284303, -5122.058704144801, 71236.59655291993, -16353.117388858485, 0.008, 0.04, 0.966, 192.0, 0.0, 0.0, 0.0, 0.0, 0.0, 0.0, 0.0, 0.0, 0.0, 1.7719023857637496E9, 0.0, 2026-02-23 19:06:25.763
183.0, 38340.1484298883, -16249.092370163486, -10624.72291287457, 88296.92313634434, -7759.609253359945, -5190.499745666951, 71247.39244549185, -16310.22439124875, 0.008, 0.04, 0.966, 192.0, 0.0, 0.0, 0.0, 0.0, 0.0, 0.0, 0.0, 0.0, 0.0, 1.7719023857676432E9, 0.0, 2026-02-23 19:06:25.767
184.0, 38419.56417793801, -16180.96425306371, -10636.77050313598, 88301.30407825757, -7768.371137186425, -5204.98367607399, 71264.49153000016, -16242.275088104618, 0.004, 0.038, 0.97, 192.0, 0.0, 32.0, 1.0, 48.0, 30.0, 80.0, 0.0, 0.0, 0.0, 1.7719023857727249E9, 0.0, 2026-02-23 19:06:25.772
185.0, 38419.117143048905, -16190.06141305702, -10571.682223282127, 88292.1845665198, -7702.14291836535, -5138.643698530638, 71259.28357354207, -16251.305192864562, 0.004, 0.038, 0.97, 192.0, 0.0, 0.0, 0.0, 0.0, 0.0, 0.0, 0.0, 0.0, 0.0, 1.771902385776765E9, 0.0, 2026-02-23 19:06:25.776
186.0, 38365.65177031181, -16236.374227568416, -10547.050600892378, 88277.61122913496, -7683.94859837873, -5116.53782326434, 71242.34095124494, -16297.41684167586, 0.004, 0.038, 0.97, 192.0, 0.0, 0.0, 0.0, 0.0, 0.0, 0.0, 0.0, 0.0, 0.0, 1.7719023857806883E9, 0.0, 2026-02-23 19:06:25.780
187.0, 38389.09875024542, -16213.217820312719, -10606.930924288145, 88279.42172043583, -7743.225424674204, -5177.267512949409, 71249.73937865965, -16274.394544886894, 0.004, 0.038, 0.97, 192.0, 0.0, 0.0, 0.0, 0.0, 0.0, 0.0, 0.0, 0.0, 0.0, 1.7719023857847772E9, 0.0, 2026-02-23 19:06:25.784
188.0, 38470.503803551655, -16144.709723557202, -10635.652915913215, 88286.39546470589, -7768.773468586621, -5206.593001674772, 71269.2748033136, -16206.06526208702, 0.004, 0.038, 0.97, 192.0, 0.0, 0.0, 0.0, 0.0, 0.0, 0.0, 0.0, 0.0, 0.0, 1.7719023857878003E9, 0.0, 2026-02-23 19:06:25.787
189.0, 38487.22290840422, -16140.95463048871, -10577.270159395954, 88281.03104603662, -7711.932982436774, -5148.858445746714, 71269.61007948042, -16202.310169018529, 0.004, 0.038, 0.97, 192.0, 0.0, 0.0, 0.0, 0.0, 0.0, 0.0, 0.0, 0.0, 0.0, 1.77190238579187E9, 0.0, 2026-02-23 19:06:25.791
190.0, 38431.43295424378, -16188.899122345343, -10538.534586254906, 88264.28958943959, -7675.3431767634365, -5110.189927839033, 71250.5663932045, -16250.053495175063, 0.004, 0.038, 0.97, 192.0, 0.0, 0.0, 0.0, 0.0, 0.0, 0.0, 0.0, 0.0, 0.0, 1.7719023857958505E9, 0.0, 2026-02-23 19:06:25.795
191.0, 38436.64091070186, -16178.885540829366, -10594.257485181986, 88261.9873597607, -7730.440226845769, -5166.9186552666015, 71252.04160833855, -16240.151672381364, 0.004, 0.038, 0.97, 192.0, 0.0, 0.0, 0.0, 0.0, 0.0, 0.0, 0.0, 0.0, 0.0, 1.7719023857997897E9, 0.0, 2026-02-23 19:06:25.799
192.0, 38520.1917314758, -16110.66801675177, -10638.268070014487, 88271.9338860433, -7771.925064554819, -5213.36558024473, 71274.34864930494, -16172.068258770498, 0.004, 0.038, 0.97, 192.0, 0.0, 0.0, 0.0, 0.0, 0.0, 0.0, 0.0, 0.0, 0.0, 1.7719023858048816E9, 0.0, 2026-02-23 19:06:25.804
193.0, 38553.22760978075, -16089.031528119032, -10589.876543268747, 88267.44118540779, -7723.399427342347, -5164.705832565526, 71277.61200399543, -16150.454121882216, 0.004, 0.042, 0.97, 192.0, 0.0, 32.0, 1.0, 80.0, 30.0, 80.0, 0.0, 0.0, 0.0, 1.771902385808876E9, 0.0, 2026-02-23 19:06:25.808
194.0, 38500.7904172886, -16136.417226364283, -10538.266365321442, 88250.29739741057, -7675.276121530071, -5112.425102284563, 71258.68007644179, -16197.68335791628, 0.004, 0.042, 0.97, 192.0, 0.0, 0.0, 0.0, 0.0, 0.0, 0.0, 0.0, 0.0, 0.0, 1.77190238581293E9, 0.0, 2026-02-23 19:06:25.812
195.0, 38486.440597348286, -16142.832177022956, -10578.879484996734, 88243.74833628516, -7722.103026163939, -5155.54161733885, 71253.69563742825, -16204.165363808319, 0.004, 0.042, 0.97, 192.0, 0.0, 0.0, 0.0, 0.0, 0.0, 0.0, 0.0, 0.0, 0.0, 1.7719023858159204E9, 0.0, 2026-02-23 19:06:25.815
196.0, 38561.00601685119, -16079.308519280974, -10634.222404268075, 88251.81731603353, -7777.8929803243855, -5210.951591843556, 71273.14165510437, -16140.775816533069, 0.004, 0.042, 0.97, 192.0, 0.0, 0.0, 0.0, 0.0, 0.0, 0.0, 0.0, 0.0, 0.0, 1.7719023858199265E9, 0.0, 2026-02-23 19:06:25.819
197.0, 38608.30230811862, -16046.898489820778, -10603.19818296411, 88250.34210089948, -7742.577224085001, -5176.351091426742, 71280.83065519699, -16108.432842306238, 0.004, 0.042, 0.97, 192.0, 0.0, 0.0, 0.0, 0.0, 0.0, 0.0, 0.0, 0.0, 0.0, 1.77190238582389E9, 0.0, 2026-02-23 19:06:25.823
198.0, 38560.894258128916, -16092.272531065051, -10542.669658979137, 88233.26536813562, -7678.584179709456, -5114.72733196346, 71262.45752125472, -16153.67277308378, 0.004, 0.042, 0.97, 192.0, 0.0, 0.0, 0.0, 0.0, 0.0, 0.0, 0.0, 0.0, 0.0, 1.7719023858279052E9, 0.0, 2026-02-23 19:06:25.827
199.0, 38528.90891181337, -16118.424072077762, -10573.246845393998, 88224.59289128696, -7707.462633545713, -5147.182064912566, 71253.29330602805, -16179.891369329855, 0.004, 0.042, 0.97, 192.0, 0.0, 0.0, 0.0, 0.0, 0.0, 0.0, 0.0, 0.0, 0.0, 1.7719023858319175E9, 0.0, 2026-02-23 19:06:25.831
200.0, 38587.53753751964, -16062.879987106322, -10636.301116502418, 88228.68326052229, -7773.623797133422, -5213.566745944828, 71267.15138759035, -16124.414339591784, 0.004, 0.042, 0.97, 192.0, 0.0, 0.0, 0.0, 0.0, 0.0, 0.0, 0.0, 0.0, 0.0, 1.7719023858369467E9, 0.0, 2026-02-23 19:06:25.836
201.0, 38646.9708260263, -16021.88688777529, -10616.877450570757, 88231.14195241236, -7752.635509089889, -5189.896248566657, 71279.84717844095, -16083.376536771839, 0.004, 0.042, 0.97, 192.0, 0.0, 0.0, 0.0, 0.0, 0.0, 0.0, 0.0, 0.0, 0.0, 1.771902385840981E9, 0.0, 2026-02-23 19:06:25.840
202.0, 38607.96703195179, -16059.884853349311, -10553.309089339864, 88214.19933011524, -7683.255694300616, -5119.354143065709, 71262.59163172146, -16121.24039187913, 0.004, 0.042, 0.97, 192.0, 0.0, 0.0, 0.0, 0.0, 0.0, 0.0, 0.0, 0.0, 0.0, 1.7719023858449783E9, 0.0, 2026-02-23 19:06:25.844
203.0, 38559.19552555031, -16098.910999168278, -10565.334327856819, 88200.7212282087, -7693.8951246613415, -5131.49114030494, 71247.10187281393, -16160.221834209186, 0.004, 0.042, 0.97, 192.0, 0.0, 0.0, 1.0, 96.0, 30.0, 48.0, 0.0, 0.0, 0.0, 1.7719023858479643E9, 0.0, 2026-02-23 19:06:25.847
204.0, 38605.351877850524, -16057.917899837244, -10632.188395522642, 88205.41509454431, -7761.643262105377, -5200.98271381649, 71259.73060843117, -16119.38519708934, 0.004, 0.042, 0.97, 192.0, 0.0, 0.0, 0.0, 0.0, 0.0, 0.0, 0.0, 0.0, 0.0, 1.771902385852003E9, 0.0, 2026-02-23 19:06:25.852
205.0, 38671.93772458288, -16006.598294567859, -10630.243793755031, 88208.49963527913, -7760.972709771719, -5196.758234114437, 71273.74515220466, -16068.065591819954, 0.004, 0.042, 0.97, 192.0, 0.0, 0.0, 0.0, 0.0, 0.0, 0.0, 0.0, 0.0, 0.0, 1.7719023858560212E9, 0.0, 2026-02-23 19:06:25.856
206.0, 38646.54614288165, -16034.672085603725, -10562.294490610897, 88193.74748393864, -7693.850421172431, -5123.198643112021, 71260.35645727592, -16096.09467936691, 0.004, 0.042, 0.97, 192.0, 0.0, 0.0, 0.0, 0.0, 0.0, 0.0, 0.0, 0.0, 0.0, 1.7719023858600528E9, 0.0, 2026-02-23 19:06:25.860
207.0, 38589.39273230943, -16088.204513574186, -10557.377106830729, 88180.89523087683, -7688.709519947711, -5117.186023853544, 71244.37495999038, -16149.515348615094, 0.004, 0.042, 0.97, 192.0, 0.0, 0.0, 0.0, 0.0, 0.0, 0.0, 0.0, 0.0, 0.0, 1.771902385865071E9, 0.0, 2026-02-23 19:06:25.865
208.0, 38615.49956983323, -16060.778923127524, -10625.929907075157, 88181.83400414397, -7756.144732969372, -5188.398681688152, 71251.32635251599, -16122.201516890707, 0.004, 0.042, 0.97, 192.0, 0.0, 0.0, 0.0, 0.0, 0.0, 0.0, 0.0, 0.0, 0.0, 1.7719023858681505E9, 0.0, 2026-02-23 19:06:25.868
209.0, 38685.4828817228, -16003.200829410653, -10643.923061361678, 88186.0137803571, -7770.516904654134, -5205.318952240819, 71266.81611142351, -16064.757533640568, 0.004, 0.042, 0.97, 192.0, 0.0, 0.0, 0.0, 0.0, 0.0, 0.0, 0.0, 0.0, 0.0, 1.7719023858711455E9, 0.0, 2026-02-23 19:06:25.871
210.0, 38678.263268263734, -16021.328094163908, -10580.220589664053, 88176.80486164152, -7707.127357378884, -5138.73310550846, 71260.6693816983, -16082.750687927091, 0.004, 0.042, 0.97, 192.0, 0.0, 0.0, 0.0, 0.0, 0.0, 0.0, 0.0, 0.0, 0.0, 1.7719023858761873E9, 0.0, 2026-02-23 19:06:25.876
211.0, 38611.722125020286, -16077.855655891379, -10555.477208552029, 88158.87876258836, -7684.239171056649, -5112.939192407035, 71239.01054132111, -16139.211194421196, 0.004, 0.042, 0.97, 192.0, 0.0, 0.0, 0.0, 0.0, 0.0, 0.0, 0.0, 0.0, 0.0, 1.7719023858802152E9, 0.0, 2026-02-23 19:06:25.880
212.0, 38619.813456513104, -16066.635080174814, -10619.045569782922, 88157.62706489886, -7746.86875902042, -5177.871010049702, 71241.67039891129, -16128.035322193542, 0.004, 0.042, 0.97, 192.0, 0.0, 0.0, 0.0, 0.0, 0.0, 0.0, 0.0, 0.0, 0.0, 1.7719023858841183E9, 0.0, 2026-02-23 19:06:25.884
213.0, 38691.60725970355, -16006.687701545681, -10649.712163175604, 88163.55027717951, -7777.870628579931, -5212.292696510875, 71259.10475958644, -16068.222054031141, 0.002, 0.042, 0.97, 192.0, 0.0, 16.0, 1.0, 80.0, 30.0, 80.0, 0.0, 0.0, 0.0, 1.7719023858882277E9, 0.0, 2026-02-23 19:06:25.888
214.0, 38699.40801851845, -16007.917047490722, -10594.592761348817, 88155.36953870888, -7723.8911657203635, -5157.709736551015, 71255.88610838486, -16069.406696487273, 0.002, 0.042, 0.97, 192.0, 0.0, 0.0, 0.0, 0.0, 0.0, 0.0, 0.0, 0.0, 0.0, 1.771902385893174E9, 0.0, 2026-02-23 19:06:25.893
215.0, 38631.59282584105, -16066.433914474717, -10556.438333563607, 88136.41525941077, -7684.865019901397, -5118.817701198781, 71233.19908776272, -16127.744749515625, 0.002, 0.042, 0.97, 192.0, 0.0, 0.0, 0.0, 0.0, 0.0, 0.0, 0.0, 0.0, 0.0, 1.7719023858961983E9, 0.0, 2026-02-23 19:06:25.896
216.0, 38622.09333444755, -16072.446533733195, -10608.942581289122, 88133.33071867595, -7735.111741436928, -5174.78646931487, 71232.0144453066, -16133.735017029647, 0.002, 0.042, 0.97, 192.0, 0.0, 0.0, 0.0, 0.0, 0.0, 0.0, 0.0, 0.0, 0.0, 1.7719023859001799E9, 0.0, 2026-02-23 19:06:25.900
217.0, 38692.2331085483, -16014.376701638306, -10654.383677766762, 88141.08677400193, -7779.435250691802, -5223.7367896719925, 71250.74520716014, -16075.79929540149, 0.002, 0.042, 0.97, 192.0, 0.0, 0.0, 0.0, 0.0, 0.0, 0.0, 0.0, 0.0, 0.0, 1.771902385904178E9, 0.0, 2026-02-23 19:06:25.904
218.0, 38716.19417860439, -15999.244570642064, -10607.489717899529, 88135.23061695465, -7733.301250136048, -5175.434669904073, 71251.57222170499, -16060.689516149703, 0.002, 0.042, 0.97, 192.0, 0.0, 0.0, 0.0, 0.0, 0.0, 0.0, 0.0, 0.0, 0.0, 1.7719023859081907E9, 0.0, 2026-02-23 19:06:25.908
219.0, 38654.7268813523, -16057.627327159325, -10554.091400395799, 88118.2432911686, -7679.321787276482, -5116.515471519884, 71231.67916913977, -16118.938162200233, 0.002, 0.042, 0.97, 192.0, 0.0, 0.0, 0.0, 0.0, 0.0, 0.0, 0.0, 0.0, 0.0, 1.7719023859124126E9, 0.0, 2026-02-23 19:06:25.912
220.0, 38624.88730250446, -16077.140400068809, -10595.151554960199, 88109.68257304223, -7719.376113340392, -5155.742783038948, 71223.23020973566, -16138.495938598626, 0.002, 0.042, 0.97, 192.0, 0.0, 0.0, 0.0, 0.0, 0.0, 0.0, 0.0, 0.0, 0.0, 1.771902385916258E9, 0.0, 2026-02-23 19:06:25.916
221.0, 38686.82398639012, -16023.295047675974, -10651.857930643313, 88116.38809637883, -7773.914369811341, -5215.153719801155, 71240.10577679942, -16084.829400161434, 0.002, 0.042, 0.97, 192.0, 0.0, 0.0, 0.0, 0.0, 0.0, 0.0, 0.0, 0.0, 0.0, 1.7719023859212852E9, 0.0, 2026-02-23 19:06:25.921
222.0, 38726.83360896511, -15994.841276984369, -10622.823014595868, 88114.06351495547, -7743.068962463018, -5184.1742019860985, 71246.23015478018, -16056.353277725373, 0.002, 0.042, 0.97, 192.0, 0.0, 0.0, 0.0, 0.0, 0.0, 0.0, 0.0, 0.0, 0.0, 1.7719023859242964E9, 0.0, 2026-02-23 19:06:25.924
223.0, 38673.859974606035, -16046.853786331867, -10562.18273188862, 88097.52322405855, -7684.730909434666, -5120.985820410946, 71227.72291037117, -16108.209324861686, 0.006, 0.042, 0.968, 192.0, 0.0, 48.0, 1.0, 80.0, 30.0, 64.0, 0.0, 0.0, 0.0, 1.7719023859273005E9, 0.0, 2026-02-23 19:06:25.927
224.0, 38630.74345955175, -16083.51064723857, -10586.322615900352, 88088.38136057633, -7710.614229513912, -5145.863311989702, 71216.92701779926, -16144.888537512845, 0.006, 0.042, 0.968, 192.0, 0.0, 0.0, 0.0, 0.0, 0.0, 0.0, 0.0, 0.0, 0.0, 1.7719023859322968E9, 0.0, 2026-02-23 19:06:25.932
225.0, 38680.565497942625, -16037.242536216085, -10652.886110888257, 88093.0975786564, -7774.20494248926, -5210.102225554255, 71230.44982319472, -16098.70983346818, 0.006, 0.042, 0.968, 192.0, 0.0, 0.0, 0.0, 0.0, 0.0, 0.0, 0.0, 0.0, 0.0, 1.7719023859363039E9, 0.0, 2026-02-23 19:06:25.936
226.0, 38732.578007290125, -15996.048271184955, -10639.050381070421, 88092.9411164452, -7758.8716457929195, -5196.780585858892, 71239.94931458823, -16057.60497541487, 0.006, 0.042, 0.968, 192.0, 0.0, 0.0, 0.0, 0.0, 0.0, 0.0, 0.0, 0.0, 0.0, 1.771902385940374E9, 0.0, 2026-02-23 19:06:25.940
227.0, 38690.31085852514, -16036.616687371337, -10570.743450015003, 88076.08790112591, -7692.106985104917, -5131.289974604842, 71222.73847135765, -16098.016929390065, 0.006, 0.042, 0.968, 192.0, 0.0, 0.0, 0.0, 0.0, 0.0, 0.0, 0.0, 0.0, 0.0, 1.771902385944376E9, 0.0, 2026-02-23 19:06:25.944
228.0, 38634.1185729645, -16085.142324583809, -10578.611264063271, 88063.68268295321, -7697.851383429931, -5140.342431109242, 71207.44987815022, -16146.520214858081, 0.006, 0.042, 0.968, 192.0, 0.0, 0.0, 0.0, 0.0, 0.0, 0.0, 0.0, 0.0, 0.0, 1.7719023859484684E9, 0.0, 2026-02-23 19:06:25.948
229.0, 38670.127233282, -16051.055914289465, -10645.264166028997, 88067.2366103216, -7765.197189473772, -5211.376274988208, 71218.06695676649, -16112.56791503047, 0.006, 0.042, 0.968, 192.0, 0.0, 0.0, 0.0, 0.0, 0.0, 0.0, 0.0, 0.0, 0.0, 1.7719023859528525E9, 0.0, 2026-02-23 19:06:25.952
230.0, 38734.09792591309, -16002.865553243824, -10645.621793940281, 88071.79636619048, -7768.572302886522, -5212.560917444339, 71233.13203252936, -16064.355202240373, 0.006, 0.042, 0.968, 192.0, 0.0, 0.0, 0.0, 0.0, 0.0, 0.0, 0.0, 0.0, 0.0, 1.7719023859553964E9, 0.0, 2026-02-23 19:06:25.955
231.0, 38709.153379100964, -16032.705132091658, -10576.71136578457, 88058.89940963977, -7699.9971508976405, -5139.761285753404, 71221.48677366815, -16094.194781088208, 0.006, 0.042, 0.968, 192.0, 0.0, 0.0, 0.0, 0.0, 0.0, 0.0, 0.0, 0.0, 0.0, 1.771902385959412E9, 0.0, 2026-02-23 19:06:25.959
232.0, 38642.321663179595, -16089.143286841309, -10566.80954299087, 88042.64969142077, -7689.7153484482, -5126.841977458236, 71201.43725889173, -16150.521177115581, 0.006, 0.042, 0.968, 192.0, 0.0, 0.0, 0.0, 0.0, 0.0, 0.0, 0.0, 0.0, 0.0, 1.7719023859644284E9, 0.0, 2026-02-23 19:06:25.964
233.0, 38658.70549186534, -16070.479580221127, -10629.729703632558, 88042.91791235423, -7753.149599212361, -5190.387986944675, 71206.64521534982, -16131.90217398431, 0.006, 0.042, 0.97, 192.0, 0.0, 48.0, 1.0, 80.0, 30.0, 80.0, 0.0, 0.0, 0.0, 1.7719023859684737E9, 0.0, 2026-02-23 19:06:25.968
234.0, 38722.51972228524, -16017.684759817692, -10647.387581752251, 88047.16474380073, -7769.242855220182, -5208.448196464562, 71221.55382890151, -16079.219112303152, 0.006, 0.042, 0.97, 192.0, 0.0, 0.0, 0.0, 0.0, 0.0, 0.0, 0.0, 0.0, 0.0, 1.771902385972468E9, 0.0, 2026-02-23 19:06:25.972
235.0, 38708.259309322755, -16034.068588503433, -10584.914455999668, 88034.1783802722, -7706.345046322947, -5143.181102655066, 71211.11556424088, -16095.42412703325, 0.006, 0.042, 0.97, 192.0, 0.0, 0.0, 0.0, 0.0, 0.0, 0.0, 0.0, 0.0, 0.0, 1.7719023859755492E9, 0.0, 2026-02-23 19:06:25.975
236.0, 38633.29155841965, -16097.793411945513, -10556.28187135242, 88015.40291492974, -7677.667758186789, -5113.408579040597, 71187.86975000736, -16159.014840008598, 0.006, 0.042, 0.97, 192.0, 0.0, 0.0, 0.0, 0.0, 0.0, 0.0, 0.0, 0.0, 0.0, 1.7719023859795616E9, 0.0, 2026-02-23 19:06:25.979
237.0, 38629.31294790661, -16096.51936251156, -10617.995037793522, 88012.89951955075, -7736.497549593157, -5174.78646931487, 71187.84739826291, -16157.852549296922, 0.006, 0.042, 0.97, 192.0, 0.0, 0.0, 0.0, 0.0, 0.0, 0.0, 0.0, 0.0, 0.0, 1.7719023859835744E9, 0.0, 2026-02-23 19:06:25.983
238.0, 38695.876442894514, -16045.445626431183, -10657.781142923968, 88021.39318244376, -7773.221465733227, -5212.918545355624, 71206.7569740721, -16106.935275427733, 0.006, 0.042, 0.97, 192.0, 0.0, 0.0, 0.0, 0.0, 0.0, 0.0, 0.0, 0.0, 0.0, 1.771902385987573E9, 0.0, 2026-02-23 19:06:25.987
239.0, 38699.22920456281, -16047.949021810178, -10604.204011464599, 88012.09485675035, -7718.392636584358, -5157.039184217356, 71202.17486645876, -16109.393967317817, 0.006, 0.042, 0.97, 192.0, 0.0, 0.0, 0.0, 0.0, 0.0, 0.0, 0.0, 0.0, 0.0, 1.771902385992604E9, 0.0, 2026-02-23 19:06:25.992
240.0, 38624.12734319298, -16112.880839452844, -10560.104019654276, 87992.4700251186, -7674.158534307306, -5108.245326071421, 71178.1467411693, -16174.191674493752, 0.006, 0.042, 0.97, 192.0, 0.0, 0.0, 0.0, 0.0, 0.0, 0.0, 0.0, 0.0, 0.0, 1.7719023859965916E9, 0.0, 2026-02-23 19:06:25.996
241.0, 38601.88735745995, -16129.33172337195, -10607.310903943886, 87987.75380703853, -7725.567546554512, -5155.631024316672, 71174.16813065627, -16190.642558412857, 0.006, 0.042, 0.97, 192.0, 0.0, 0.0, 0.0, 0.0, 0.0, 0.0, 0.0, 0.0, 0.0, 1.7719023860006456E9, 0.0, 2026-02-23 19:06:26.000
242.0, 38662.058253533636, -16079.375574514339, -10651.992041110045, 87995.04047573096, -7775.143715756383, -5202.793205117369, 71191.53543609804, -16140.820520021978, 0.01, 0.042, 0.966, 192.0, 0.0, 80.0, 1.0, 80.0, 30.0, 48.0, 0.0, 0.0, 0.0, 1.7719023860036495E9, 0.0, 2026-02-23 19:06:26.003
243.0, 38683.11359681054, -16068.13264705332, -10610.082520256343, 87990.05603671742, -7733.971802469708, -5161.531884852873, 71193.18946518772, -16129.488185583137, 0.01, 0.042, 0.966, 192.0, 0.0, 0.0, 0.0, 0.0, 0.0, 0.0, 0.0, 0.0, 0.0, 1.7719023860076747E9, 0.0, 2026-02-23 19:06:26.007
244.0, 38612.549139565126, -16127.700046026714, -10556.974775430534, 87969.22421088508, -7681.311092533004, -5109.899355161114, 71168.89311896481, -16188.943825834254, 0.01, 0.042, 0.966, 192.0, 0.0, 0.0, 0.0, 0.0, 0.0, 0.0, 0.0, 0.0, 0.0, 1.77190238601169E9, 0.0, 2026-02-23 19:06:26.011
245.0, 38571.75720593419, -16155.997354507132, -10596.0009212495, 87959.43414681366, -7720.940735452264, -5151.16067542561, 71157.98546767062, -16217.330541292495, 0.01, 0.042, 0.966, 192.0, 0.0, 0.0, 0.0, 0.0, 0.0, 0.0, 0.0, 0.0, 0.0, 1.7719023860156496E9, 0.0, 2026-02-23 19:06:26.015
246.0, 38624.88730250446, -16109.885705695833, -10659.144599335743, 87966.34083585035, -7780.441079192291, -5213.790263389381, 71174.16813065627, -16171.330651203472, 0.01, 0.042, 0.966, 192.0, 0.0, 0.0, 0.0, 0.0, 0.0, 0.0, 0.0, 0.0, 0.0, 1.77190238601968E9, 0.0, 2026-02-23 19:06:26.019
247.0, 38660.96301805532, -16081.99072861561, -10630.512014688495, 87963.63627477126, -7751.115590466928, -5182.654283363138, 71179.64430804782, -16143.547432845526, 0.01, 0.042, 0.966, 192.0, 0.0, 0.0, 0.0, 0.0, 0.0, 0.0, 0.0, 0.0, 0.0, 1.7719023860247183E9, 0.0, 2026-02-23 19:06:26.024
248.0, 38605.4636365728, -16136.9089647423, -10566.273101123941, 87948.14651586373, -7685.736737935154, -5113.766206951882, 71161.98642992812, -16198.219799783206, 0.01, 0.042, 0.966, 192.0, 0.0, 0.0, 0.0, 0.0, 0.0, 0.0, 0.0, 0.0, 0.0, 1.7719023860287166E9, 0.0, 2026-02-23 19:06:26.028
249.0, 38553.16055454738, -16180.673680385791, -10587.060223467377, 87937.93176864764, -7705.741549222655, -5132.1616926386, 71149.2459355886, -16241.828053215511, 0.01, 0.042, 0.966, 192.0, 0.0, 0.0, 0.0, 0.0, 0.0, 0.0, 0.0, 0.0, 0.0, 1.7719023860317345E9, 0.0, 2026-02-23 19:06:26.031
250.0, 38594.13130213396, -16142.474549111672, -10652.193206810141, 87942.87150417228, -7772.461506421746, -5205.810690618836, 71162.07583690595, -16203.830087641489, 0.01, 0.042, 0.966, 192.0, 0.0, 0.0, 0.0, 0.0, 0.0, 0.0, 0.0, 0.0, 0.0, 1.7719023860357788E9, 0.0, 2026-02-23 19:06:26.035
251.0, 38643.34984342454, -16103.671920737259, -10642.023163082977, 87943.6091117393, -7762.984366772696, -5199.663960893627, 71172.22352888864, -16165.206273222719, 0.01, 0.042, 0.966, 192.0, 0.0, 0.0, 0.0, 0.0, 0.0, 0.0, 0.0, 0.0, 0.0, 1.771902386040073E9, 0.0, 2026-02-23 19:06:26.040
252.0, 38598.422837069375, -16144.821482279478, -10572.75510701598, 87926.59943420881, -7696.085595617962, -5129.546538537328, 71154.58800251341, -16206.154669064841, 0.006, 0.04, 0.972, 192.0, 0.0, 48.0, 1.0, 64.0, 30.0, 96.0, 0.0, 0.0, 0.0, 1.7719023860437243E9, 0.0, 2026-02-23 19:06:26.043
253.0, 38535.41326944986, -16201.058471329032, -10573.962101216568, 87914.5965474363, -7696.376168295881, -5130.552367037817, 71138.91942965024, -16262.346954625484, 0.006, 0.04, 0.972, 192.0, 0.0, 0.0, 0.0, 0.0, 0.0, 0.0, 0.0, 0.0, 0.0, 1.7719023860477512E9, 0.0, 2026-02-23 19:06:26.047
254.0, 38559.17317380586, -16174.638709382858, -10639.787988637447, 87916.07176257035, -7762.447924905769, -5197.920524826112, 71146.40726404278, -16236.038951401586, 0.006, 0.04, 0.972, 192.0, 0.0, 0.0, 0.0, 0.0, 0.0, 0.0, 0.0, 0.0, 0.0, 1.7719023860518565E9, 0.0, 2026-02-23 19:06:26.051
255.0, 38615.566625066596, -16129.778758261056, -10645.778256151469, 87919.22335853855, -7773.3108727110475, -5206.861222608236, 71159.61714501586, -16191.223703768695, 0.006, 0.04, 0.972, 192.0, 0.0, 0.0, 0.0, 0.0, 0.0, 0.0, 0.0, 0.0, 0.0, 1.771902386056811E9, 0.0, 2026-02-23 19:06:26.056
0.0, 38585.72704621876, -16161.898215043333, -10578.968891974557, 87905.85701535428, -7710.256601602627, -5137.8613874747025, 71147.1448716098, -16223.253753573152, 0.006, 0.04, 0.972, 192.0, 0.0, 0.0, 0.0, 0.0, 0.0, 0.0, 0.0, 0.0, 0.0, 1.7719023860597992E9, 0.0, 2026-02-23 19:06:26.059
1.0, 38509.97698425972, -16225.153651851851, -10562.115676655254, 87888.2438407235, -7691.391729282347, -5118.862404687691, 71124.92723762122, -16286.397431659394, 0.006, 0.04, 0.972, 192.0, 0.0, 0.0, 0.0, 0.0, 0.0, 0.0, 0.0, 0.0, 0.0, 1.77190238606382E9, 0.0, 2026-02-23 19:06:26.063
2.0, 38514.112056983955, -16216.257657558639, -10626.220479753076, 87887.10390175629, -7750.288575922082, -5177.7145478385155, 71127.47533648912, -16277.501437366182, 0.006, 0.04, 0.972, 192.0, 0.0, 0.0, 0.0, 0.0, 0.0, 0.0, 0.0, 0.0, 0.0, 1.7719023860678117E9, 0.0, 2026-02-23 19:06:26.067
3.0, 38573.09831060151, -16171.956500048222, -10648.572224208383, 87893.4517971816, -7771.120401754428, -5196.042978291867, 71143.74740645259, -16233.312038578038, 0.006, 0.04, 0.972, 192.0, 0.0, 0.0, 0.0, 0.0, 0.0, 0.0, 0.0, 0.0, 0.0, 1.7719023860718255E9, 0.0, 2026-02-23 19:06:26.071
4.0, 38554.74752840371, -16192.765974136111, -10582.52281934295, 87880.93482028661, -7705.965066667208, -5129.323021092775, 71133.44325225869, -16253.942698710287, 0.006, 0.04, 0.972, 192.0, 0.0, 0.0, 0.0, 0.0, 0.0, 0.0, 0.0, 0.0, 0.0, 1.7719023860758438E9, 0.0, 2026-02-23 19:06:26.075
5.0, 38468.31333259503, -16266.482027349715, -10544.547205513383, 87860.21475317655, -7669.978758094163, -5095.05779684279, 71106.95643507915, -16327.479937968248, 0.006, 0.04, 0.972, 192.0, 0.0, 0.0, 0.0, 0.0, 0.0, 0.0, 0.0, 0.0, 0.0, 1.7719023860799065E9, 0.0, 2026-02-23 19:06:26.079
6.0, 38442.36295728242, -16284.721050825245, -10593.296360170409, 87854.31389264035, -7719.420816829303, -5146.9585474680125, 71101.30144373197, -16345.853071910511, 0.006, 0.03, 0.968, 192.0, 0.0, 48.0, 0.0, 240.0, 30.0, 64.0, 0.0, 0.0, 0.0, 1.771902386084924E9, 0.0, 2026-02-23 19:06:26.084
7.0, 38484.85362349196, -16251.506358564659, -10628.410950709695, 87858.0913374533, -7756.390602158381, -5184.353015941741, 71113.05846131545, -16312.79484186111, 0.006, 0.03, 0.968, 192.0, 0.0, 0.0, 0.0, 0.0, 0.0, 0.0, 0.0, 0.0, 0.0, 1.7719023860879445E9, 0.0, 2026-02-23 19:06:26.087
8.0, 38472.78368148609, -16267.845483761488, -10580.019423963955, 87848.18951465959, -7715.263392360615, -5135.134474651155, 71105.97295832312, -16328.955153102299, 0.006, 0.03, 0.968, 192.0, 0.0, 0.0, 0.0, 0.0, 0.0, 0.0, 0.0, 0.0, 0.0, 1.771902386090973E9, 0.0, 2026-02-23 19:06:26.090
9.0, 38379.040465240534, -16346.076589355063, -10533.728961197015, 87825.54719752636, -7815.086283098017, -5087.569962450262, 71077.09450448687, -16406.8733342735, 0.006, 0.03, 0.968, 192.0, 0.0, 0.0, 0.0, 0.0, 0.0, 0.0, 0.0, 0.0, 0.0, 1.7719023860959632E9, 0.0, 2026-02-23 19:06:26.095
10.0, 38327.13971461531, -16382.934615961865, -10576.778421017936, 87815.28774682138, -7810.705341184776, -5130.440608315541, 71064.44341712516, -16443.753712624755, 0.006, 0.03, 0.968, 192.0, 0.0, 0.0, 0.0, 0.0, 0.0, 0.0, 0.0, 0.0, 0.0, 1.7719023860999868E9, 0.0, 2026-02-23 19:06:26.099
11.0, 38355.146450417815, -16355.57608074857, -10622.353627962308, 87816.24887183296, -7744.454770619246, -5175.613483859716, 71072.11006547333, -16416.52928787819, 0.006, 0.03, 0.968, 192.0, 0.0, 0.0, 0.0, 0.0, 0.0, 0.0, 0.0, 0.0, 0.0, 1.7719023861040273E9, 0.0, 2026-02-23 19:06:26.104
12.0, 38351.301950371504, -16365.254386097717, -10585.115621699766, 87809.34218279627, -7782.631550148911, -5134.106294406211, 71068.84671078286, -16426.14053799397, 0.006, 0.03, 0.968, 192.0, 0.0, 0.0, 0.0, 0.0, 0.0, 0.0, 0.0, 0.0, 0.0, 1.7719023861080513E9, 0.0, 2026-02-23 19:06:26.108
13.0, 38259.168059726726, -16443.26197424674, -10531.94082164059, 87787.7727493969, -7963.390107558979, -5078.852782112692, 71041.39876859174, -16503.097594153594, 0.006, 0.03, 0.968, 192.0, 0.0, 0.0, 0.0, 0.0, 0.0, 0.0, 0.0, 0.0, 0.0, 1.771902386111998E9, 0.0, 2026-02-23 19:06:26.111
14.0, 38192.29164031645, -16490.535913769712, -10567.70361276908, 87775.92632483559, -8034.312192715668, -5118.370666309675, 71025.88665793976, -16550.192719720926, 0.006, 0.03, 0.968, 192.0, 0.0, 0.0, 0.0, 0.0, 0.0, 0.0, 0.0, 0.0, 0.0, 1.77190238611498E9, 0.0, 2026-02-23 19:06:26.114
15.0, 38221.617129041806, -16462.55152971167, -10628.902689087712, 87782.05070281634, -7922.553470439133, -5184.867106064214, 71038.80596623493, -16523.147108930007, 0.006, 0.03, 0.968, 192.0, 0.0, 0.0, 0.0, 0.0, 0.0, 0.0, 0.0, 0.0, 0.0, 1.7719023861190722E9, 0.0, 2026-02-23 19:06:26.119
16.0, 38241.59958858485, -16449.743980138777, -10606.975627777056, 87780.95546733803, -7876.777097794664, -5163.409431387118, 71044.3715506043, -16510.31720761266, 0.004, 0.03, 0.974, 192.0, 0.0, 32.0, 0.0, 240.0, 30.0, 112.0, 0.0, 0.0, 0.0, 1.7719023861240983E9, 0.0, 2026-02-23 19:06:26.124
17.0, 38168.352922004815, -16510.250152379293, -10544.681315980115, 87762.02353978438, -8012.58629710511, -5098.969352122468, 71021.63982649325, -16564.587243150145, 0.004, 0.03, 0.974, 192.0, 0.0, 0.0, 0.0, 0.0, 0.0, 0.0, 0.0, 0.0, 0.0, 1.771902386128088E9, 0.0, 2026-02-23 19:06:26.128
18.0, 38093.72044726854, -16559.401638436513, -10563.970871445044, 87746.44437389904, -8048.192626022414, -5117.856576187203, 71001.34444252783, -16603.14400233555, 0.004, 0.03, 0.974, 192.0, 0.0, 0.0, 0.0, 0.0, 0.0, 0.0, 0.0, 0.0, 0.0, 1.7719023861320524E9, 0.0, 2026-02-23 19:06:26.132
19.0, 38118.68734582512, -16528.399768877003, -10633.305982745407, 87751.07118500129, -8083.418975283978, -5184.800050830848, 71013.74966070053, -16586.067269571697, 0.004, 0.03, 0.974, 192.0, 0.0, 0.0, 0.0, 0.0, 0.0, 0.0, 0.0, 0.0, 0.0, 1.7719023861361885E9, 0.0, 2026-02-23 19:06:26.136
20.0, 38160.14983178971, -16490.87118993654, -10628.299191987418, 87753.73104259146, -8045.331602732134, -5179.726204839493, 71025.8196027064, -16551.37736217706, 0.004, 0.03, 0.974, 192.0, 0.0, 0.0, 0.0, 0.0, 0.0, 0.0, 0.0, 0.0, 0.0, 1.7719023861392128E9, 0.0, 2026-02-23 19:06:26.139
21.0, 38114.507569611975, -16529.584411333133, -10564.574368545338, 87739.98471975145, -8042.0905997861155, -5120.158805866099, 71011.44743102163, -16583.697984659433, 0.004, 0.03, 0.974, 192.0, 0.0, 0.0, 0.0, 0.0, 0.0, 0.0, 0.0, 0.0, 0.0, 1.7719023861432412E9, 0.0, 2026-02-23 19:06:26.143
22.0, 38043.987815855486, -16582.37923173657, -10565.311976112363, 87726.73013528946, -8051.232463268336, -5126.685515247049, 70993.49898022402, -16618.052615887238, 0.004, 0.03, 0.974, 192.0, 0.0, 0.0, 0.0, 0.0, 0.0, 0.0, 0.0, 0.0, 0.0, 1.7719023861474235E9, 0.0, 2026-02-23 19:06:26.147
23.0, 38061.51158350844, -16555.579490134656, -10634.155349034709, 87729.41234462408, -8093.141984122037, -5197.093510281266, 71003.51256173999, -16609.38013903858, 0.004, 0.03, 0.974, 192.0, 0.0, 0.0, 0.0, 0.0, 0.0, 0.0, 0.0, 0.0, 0.0, 1.7719023861513195E9, 0.0, 2026-02-23 19:06:26.151
24.0, 38117.32388941335, -16504.84103022111, -10642.850177627824, 87734.48619061544, -7989.429889849412, -5208.9399348425795, 71019.762279959, -16565.391905950535, 0.004, 0.03, 0.974, 192.0, 0.0, 0.0, 0.0, 0.0, 0.0, 0.0, 0.0, 0.0, 0.0, 1.771902386156165E9, 0.0, 2026-02-23 19:06:26.156
25.0, 38094.43570309111, -16525.002303719797, -10579.035947207922, 87723.42207711007, -8045.532768432233, -5143.337564866253, 71010.73217519905, -16581.440458469446, 0.006, 0.032, 0.976, 192.0, 0.0, 48.0, 1.0, 0.0, 30.0, 128.0, 0.0, 0.0, 0.0, 1.7719023861601996E9, 0.0, 2026-02-23 19:06:26.160
26.0, 38023.08893478977, -16578.490028201348, -10562.070973166345, 87707.82055948026, -8056.149847048503, -5123.735084978948, 70990.21327378908, -16614.588095496667, 0.006, 0.032, 0.976, 192.0, 0.0, 0.0, 0.0, 0.0, 0.0, 0.0, 0.0, 0.0, 0.0, 1.7719023861641967E9, 0.0, 2026-02-23 19:06:26.164
27.0, 38031.046155815864, -16563.84963558312, -10621.683075628647, 87710.34630660371, -8084.447155528922, -5193.226658490498, 70998.34930877082, -16613.694025718454, 0.006, 0.032, 0.976, 192.0, 0.0, 0.0, 0.0, 0.0, 0.0, 0.0, 0.0, 0.0, 0.0, 1.771902386167205E9, 0.0, 2026-02-23 19:06:26.167
28.0, 38094.793331002395, -16504.662216265468, -10646.046477084932, 87716.73890551794, -7914.3056767351245, -5224.764969916937, 71016.99066364655, -16565.034278039253, 0.006, 0.032, 0.976, 192.0, 0.0, 0.0, 0.0, 0.0, 0.0, 0.0, 0.0, 0.0, 0.0, 1.7719023861712344E9, 0.0, 2026-02-23 19:06:26.171
29.0, 38095.285069380414, -16507.389129089013, -10589.831839779836, 87709.60869903669, -8004.4055586344675, -5167.544504111351, 71014.68843396765, -16566.241272239837, 0.006, 0.032, 0.976, 192.0, 0.0, 0.0, 0.0, 0.0, 0.0, 0.0, 0.0, 0.0, 0.0, 1.7719023861772718E9, 0.0, 2026-02-23 19:06:26.177
30.0, 38031.739059893975, -16561.99444079333, -10554.47138005154, 87696.62233550816, -8072.466620500877, -5132.541672294339, 70997.83521864834, -16605.468583758902, 0.006, 0.032, 0.976, 192.0, 0.0, 0.0, 0.0, 0.0, 0.0, 0.0, 0.0, 0.0, 0.0, 1.7719023861802676E9, 0.0, 2026-02-23 19:06:26.180
31.0, 38026.642862158165, -16556.31709770168, -10609.121395244765, 87695.41534130757, -8078.859219415095, -5192.019664289912, 71000.38331751624, -16605.736804692366, 0.006, 0.032, 0.976, 192.0, 0.0, 0.0, 0.0, 0.0, 0.0, 0.0, 0.0, 0.0, 0.0, 1.7719023861842775E9, 0.0, 2026-02-23 19:06:26.184
32.0, 38094.83803449131, -16492.21229460386, -10648.68398293066, 87703.08198965574, -7886.27658918817, -5235.247938066475, 71020.5669427594, -16552.494949399825, 0.006, 0.032, 0.976, 192.0, 0.0, 0.0, 0.0, 0.0, 0.0, 0.0, 0.0, 0.0, 0.0, 1.7719023861882997E9, 0.0, 2026-02-23 19:06:26.188
33.0, 38118.82145629185, -16475.850817662576, -10600.851249796302, 87699.99744892091, -7915.512670935711, -5185.8729345647025, 71024.88082943927, -16536.066417225175, 0.006, 0.032, 0.976, 192.0, 0.0, 0.0, 0.0, 0.0, 0.0, 0.0, 0.0, 0.0, 0.0, 1.7719023861923249E9, 0.0, 2026-02-23 19:06:26.192
34.0, 38062.852688175764, -16521.828356007143, -10553.51025503996, 87685.11118711367, -8075.037071113238, -5139.649527031127, 71008.3628902868, -16579.607615424113, 0.006, 0.032, 0.976, 192.0, 0.0, 0.0, 0.0, 0.0, 0.0, 0.0, 0.0, 0.0, 0.0, 1.7719023861953619E9, 0.0, 2026-02-23 19:06:26.195
35.0, 38045.35127226726, -16523.46003335238, -10597.856116039291, 87679.3444370442, -8046.002155065794, -5186.923466554102, 71004.8089629184, -16581.79808638073, 0.01, 0.03, 0.972, 192.0, 0.0, 80.0, 0.0, 240.0, 30.0, 96.0, 0.0, 0.0, 0.0, 1.771902386199339E9, 0.0, 2026-02-23 19:06:26.199
36.0, 38115.96043300157, -16458.05882907615, -10653.981346366567, 87688.30748657077, -7874.474868115768, -5248.994260906489, 71025.6631404952, -16518.65440829449, 0.01, 0.03, 0.972, 192.0, 0.0, 0.0, 0.0, 0.0, 0.0, 0.0, 0.0, 0.0, 0.0, 1.7719023862033577E9, 0.0, 2026-02-23 19:06:26.203
37.0, 38163.77081439147, -16423.212459470327, -10619.783177349947, 87689.93916391602, -7828.050294882095, -5217.075969824311, 71036.95077144513, -16483.897445666487, 0.01, 0.03, 0.972, 192.0, 0.0, 0.0, 0.0, 0.0, 0.0, 0.0, 0.0, 0.0, 0.0, 1.77190238620742E9, 0.0, 2026-02-23 19:06:26.207
38.0, 38121.704831326584, -16458.125884309517, -10564.395554589695, 87675.5893439757, -7980.265674622736, -5158.357937140219, 71022.73506197156, -16518.31913212766, 0.01, 0.03, 0.972, 192.0, 0.0, 0.0, 0.0, 0.0, 0.0, 0.0, 0.0, 0.0, 0.0, 1.7719023862114122E9, 0.0, 2026-02-23 19:06:26.211
39.0, 38098.5931275598, -16470.240529804294, -10597.274970683453, 87669.93435262852, -7976.91291295444, -5186.878763065191, 71018.48823052505, -16530.478481111346, 0.01, 0.03, 0.972, 192.0, 0.0, 0.0, 0.0, 0.0, 0.0, 0.0, 0.0, 0.0, 0.0, 1.7719023862163944E9, 0.0, 2026-02-23 19:06:26.216
40.0, 38168.755253405005, -16406.091023217563, -10663.72670694908, 87679.9926376334, -7852.368992849469, -5254.246920853487, 71040.10236741333, -16466.887768136, 0.01, 0.03, 0.972, 192.0, 0.0, 0.0, 0.0, 0.0, 0.0, 0.0, 0.0, 0.0, 0.0, 1.7719023862194018E9, 0.0, 2026-02-23 19:06:26.219
41.0, 38237.39746062725, -16347.685914955846, -10649.846273642335, 87683.3006958128, -7826.8433006815085, -5239.360659046252, 71055.65918155422, -16408.66147382992, 0.01, 0.03, 0.972, 192.0, 0.0, 0.0, 0.0, 0.0, 0.0, 0.0, 0.0, 0.0, 0.0, 1.7719023862224035E9, 0.0, 2026-02-23 19:06:26.222
42.0, 38220.74541100805, -16365.299089586628, -10586.300264155898, 87673.46592825245, -7766.068907507528, -5172.059556491323, 71048.66308553971, -16426.00642752724, 0.01, 0.03, 0.972, 192.0, 0.0, 0.0, 0.0, 0.0, 0.0, 0.0, 0.0, 0.0, 0.0, 1.771902386227478E9, 0.0, 2026-02-23 19:06:26.227
43.0, 38199.04186714195, -16377.52549380368, -10599.107813728788, 87666.33572177122, -7781.581018159512, -5187.392853187663, 71043.3210186149, -16438.12107302202, 0.01, 0.03, 0.972, 192.0, 0.0, 0.0, 0.0, 0.0, 0.0, 0.0, 0.0, 0.0, 0.0, 1.771902386231449E9, 0.0, 2026-02-23 19:06:26.231
44.0, 38274.76957735653, -16310.04557729311, -10667.593558739849, 87678.4950707549, -7850.156170148393, -5256.8397232103025, 71067.41619913772, -16370.95408093382, 0.01, 0.03, 0.972, 192.0, 0.0, 0.0, 0.0, 0.0, 0.0, 0.0, 0.0, 0.0, 0.0, 1.7719023862354765E9, 0.0, 2026-02-23 19:06:26.235
45.0, 38373.6089913379, -16228.7299309647, -10671.996852397544, 87688.70981797097, -7855.408830095391, -5259.678394756126, 71092.94189130567, -16289.861952049967, 0.006, 0.028, 0.97, 192.0, 0.0, 48.0, 0.0, 224.0, 30.0, 80.0, 0.0, 0.0, 0.0, 1.7719023862395763E9, 0.0, 2026-02-23 19:06:26.239
46.0, 38386.528299633064, -16220.862116916433, -10608.853174311302, 87681.57961148974, -7795.036768321606, -5194.746577113459, 71092.22663548311, -16281.927082768332, 0.006, 0.028, 0.97, 192.0, 0.0, 0.0, 0.0, 0.0, 0.0, 0.0, 0.0, 0.0, 0.0, 1.7719023862445428E9, 0.0, 2026-02-23 19:06:26.244
47.0, 38367.61872382388, -16232.932058922299, -10604.025197508956, 87672.92948638553, -7791.080509553017, -5189.538620655372, 71085.56581563543, -16293.997024774199, 0.006, 0.028, 0.97, 192.0, 0.0, 0.0, 0.0, 0.0, 0.0, 0.0, 0.0, 0.0, 0.0, 1.7719023862475834E9, 0.0, 2026-02-23 19:06:26.247
48.0, 38434.96452986771, -16174.303433216028, -10668.308814562419, 87683.0995301127, -7854.64887078391, -5254.604548764772, 71106.41999321223, -16235.54721302357, 0.006, 0.028, 0.97, 192.0, 0.0, 0.0, 0.0, 0.0, 0.0, 0.0, 0.0, 0.0, 0.0, 1.7719023862505991E9, 0.0, 2026-02-23 19:06:26.250
49.0, 38540.80003986359, -16087.489257751617, -10678.68002398968, 87693.69425698451, -7867.679937801354, -5268.350871604785, 71132.57153422493, -16148.844796281433, 0.006, 0.028, 0.97, 192.0, 0.0, 0.0, 0.0, 0.0, 0.0, 0.0, 0.0, 0.0, 0.0, 1.7719023862555463E9, 0.0, 2026-02-23 19:06:26.255
50.0, 38566.19162156482, -16072.93827211121, -10615.737511603536, 87687.36871330366, -7804.022169592639, -5202.681446395093, 71133.39854876978, -16134.29381064103, 0.006, 0.028, 0.97, 192.0, 0.0, 0.0, 0.0, 0.0, 0.0, 0.0, 0.0, 0.0, 0.0, 1.7719023862595718E9, 0.0, 2026-02-23 19:06:26.259
51.0, 38536.79907760609, -16101.012063147076, -10587.686072312126, 87675.7458061869, -7776.194247745782, -5172.774812313893, 71122.2897317755, -16162.300546443528, 0.006, 0.028, 0.97, 192.0, 0.0, 0.0, 0.0, 0.0, 0.0, 0.0, 0.0, 0.0, 0.0, 1.771902386265629E9, 0.0, 2026-02-23 19:06:26.265
52.0, 38577.30043855911, -16064.981051085122, -10644.638317184248, 87679.0985678552, -7832.140664117416, -5233.862129910246, 71133.10797609187, -16126.336589614939, 0.006, 0.028, 0.97, 192.0, 0.0, 0.0, 0.0, 0.0, 0.0, 0.0, 0.0, 0.0, 0.0, 1.7719023862686431E9, 0.0, 2026-02-23 19:06:26.268
53.0, 38674.23995426178, -15980.603215766338, -10673.606177998327, 87685.73703595842, -7856.1911411513265, -5261.287720356908, 71154.00685715758, -16042.204623485164, 0.006, 0.028, 0.97, 192.0, 0.0, 0.0, 0.0, 0.0, 0.0, 0.0, 0.0, 0.0, 0.0, 1.7719023862726607E9, 0.0, 2026-02-23 19:06:26.272
54.0, 38709.935690156904, -15959.34670678934, -10614.86579356978, 87680.55143124479, -7796.154355544371, -5200.848603349758, 71156.82317695895, -16020.858707530346, 0.006, 0.028, 0.97, 192.0, 0.0, 0.0, 0.0, 0.0, 0.0, 0.0, 0.0, 0.0, 0.0, 1.7719023862757533E9, 0.0, 2026-02-23 19:06:26.275
55.0, 38671.71420713833, -15995.958864207134, -10571.637519793216, 87665.2404862929, -7754.110724223939, -5158.380288884675, 71140.8416796734, -16057.381457970318, 0.008, 0.032, 0.976, 192.0, 0.0, 64.0, 1.0, 0.0, 30.0, 128.0, 0.0, 0.0, 0.0, 1.7719023862786367E9, 0.0, 2026-02-23 19:06:26.278
56.0, 38685.97462010082, -15984.313605345918, -10617.793872093425, 87664.05584383677, -7801.697588169288, -5205.631876663194, 71144.10503436388, -16045.825606086924, 0.008, 0.032, 0.976, 192.0, 0.0, 0.0, 0.0, 0.0, 0.0, 0.0, 0.0, 0.0, 0.0, 1.7719023862836936E9, 0.0, 2026-02-23 19:06:26.283
57.0, 38773.77227232126, -15913.86090682279, -10658.921081891189, 87672.8400794077, -7842.288356100125, -5246.490865527495, 71165.54035729652, -15975.439962797162, 0.008, 0.032, 0.976, 192.0, 0.0, 0.0, 0.0, 0.0, 0.0, 0.0, 0.0, 0.0, 0.0, 1.7719023862876527E9, 0.0, 2026-02-23 19:06:26.287
58.0, 38814.76537165229, -15886.43531637613, -10613.256467968997, 87668.10150958318, -7795.595561932989, -5199.149870771154, 71169.18369164273, -15947.924965372678, 0.008, 0.032, 0.976, 192.0, 0.0, 0.0, 0.0, 0.0, 0.0, 0.0, 0.0, 0.0, 0.0, 1.7719023862916949E9, 0.0, 2026-02-23 19:06:26.291
59.0, 38771.11241473108, -15928.389540718741, -10561.825103977335, 87650.9353698415, -7747.472256120713, -5148.746687024437, 71150.87761293384, -15989.9238932042, 0.008, 0.032, 0.976, 192.0, 0.0, 0.0, 0.0, 0.0, 0.0, 0.0, 0.0, 0.0, 0.0, 1.7719023862957537E9, 0.0, 2026-02-23 19:06:26.295
60.0, 38759.33304540313, -15936.704389656114, -10598.079633483843, 87644.45336394946, -7784.509096683157, -5187.594018887761, 71145.8931739203, -15998.21639039712, 0.008, 0.032, 0.976, 192.0, 0.0, 0.0, 0.0, 0.0, 0.0, 0.0, 0.0, 0.0, 0.0, 1.7719023862997427E9, 0.0, 2026-02-23 19:06:26.299
61.0, 38833.16085733901, -15874.767705770459, -10650.896805631734, 87651.36005298616, -7836.342792075014, -5239.718286957537, 71163.95338344018, -15936.480872211561, 0.008, 0.032, 0.976, 192.0, 0.0, 0.0, 0.0, 0.0, 0.0, 0.0, 0.0, 0.0, 0.0, 1.7719023863037555E9, 0.0, 2026-02-23 19:06:26.303
62.0, 38885.28512540879, -15838.155548352666, -10618.039741282433, 87649.8848378521, -7804.603314948477, -5204.760158629437, 71171.91060446628, -15899.824011304858, 0.008, 0.032, 0.976, 192.0, 0.0, 0.0, 0.0, 0.0, 0.0, 0.0, 0.0, 0.0, 0.0, 1.77190238630678E9, 0.0, 2026-02-23 19:06:26.306
63.0, 38846.41544180101, -15876.488790093517, -10553.778475973426, 87633.05397427727, -7745.684116564288, -5145.013945700401, 71154.4985955356, -15938.067846067888, 0.008, 0.032, 0.976, 192.0, 0.0, 0.0, 0.0, 0.0, 0.0, 0.0, 0.0, 0.0, 0.0, 1.7719023863108163E9, 0.0, 2026-02-23 19:06:26.310
64.0, 38817.42522924247, -15897.924113026156, -10577.113697184766, 87621.31930843822, -7767.566474386034, -5168.662091334116, 71142.56276399647, -15959.503169000527, 0.008, 0.032, 0.976, 192.0, 0.0, 0.0, 0.0, 0.0, 0.0, 0.0, 0.0, 0.0, 0.0, 1.771902386315802E9, 0.0, 2026-02-23 19:06:26.315
65.0, 38885.64275332007, -15846.04571414539, -10639.162139792697, 87628.82949457521, -7829.12317861595, -5233.236281065498, 71159.84066246041, -15907.66947360867, 0.008, 0.04, 0.966, 192.0, 0.0, 64.0, 1.0, 64.0, 30.0, 48.0, 0.0, 0.0, 0.0, 1.771902386319801E9, 0.0, 2026-02-23 19:06:26.319
66.0, 38953.43559425302, -15798.41414671113, -10623.426511696161, 87630.86350332064, -7812.761701674664, -5217.947687858068, 71172.73761901112, -15860.104961407776, 0.008, 0.04, 0.966, 192.0, 0.0, 0.0, 0.0, 0.0, 0.0, 0.0, 0.0, 0.0, 0.0, 1.7719023863238533E9, 0.0, 2026-02-23 19:06:26.323
67.0, 38930.88268409761, -15826.0856063468, -10560.104019654276, 87614.94906126846, -7747.047572976062, -5150.266605647398, 71158.18663337071, -15887.776421043447, 0.008, 0.04, 0.966, 192.0, 0.0, 0.0, 0.0, 0.0, 0.0, 0.0, 0.0, 0.0, 0.0, 1.7719023863267877E9, 0.0, 2026-02-23 19:06:26.326
68.0, 38892.4823871234, -15860.194368385599, -10564.976699945533, 87602.54384309577, -7750.981480000196, -5155.832190016769, 71144.6414762308, -15921.840479593335, 0.008, 0.04, 0.966, 192.0, 0.0, 0.0, 0.0, 0.0, 0.0, 0.0, 0.0, 0.0, 0.0, 1.7719023863309464E9, 0.0, 2026-02-23 19:06:26.330
69.0, 38942.237370280905, -15817.703702176059, -10628.43330245415, 87606.23188093089, -7815.823890665042, -5223.870900138724, 71156.51025253657, -15879.394516872708, 0.008, 0.04, 0.966, 192.0, 0.0, 0.0, 0.0, 0.0, 0.0, 0.0, 0.0, 0.0, 0.0, 1.7719023863349628E9, 0.0, 2026-02-23 19:06:26.334
70.0, 39015.931071750056, -15763.098390471745, -10629.908517588201, 87610.90339552205, -7822.9093936573745, -5231.001106619967, 71172.67056377776, -15824.878612146213, 0.008, 0.04, 0.966, 192.0, 0.0, 0.0, 0.0, 0.0, 0.0, 0.0, 0.0, 0.0, 0.0, 1.7719023863388972E9, 0.0, 2026-02-23 19:06:26.338
71.0, 39003.43644659954, -15783.1255535037, -10565.490790068006, 87599.05697096074, -7761.576206872011, -5165.9798819994785, 71163.23812761762, -15844.883423433714, 0.008, 0.04, 0.966, 192.0, 0.0, 0.0, 0.0, 0.0, 0.0, 0.0, 0.0, 0.0, 0.0, 1.7719023863429525E9, 0.0, 2026-02-23 19:06:26.342
72.0, 38950.351053518185, -15825.45975750205, -10551.990336417, 87582.09199691916, -7749.215692188227, -5150.78069576987, 71143.88151691933, -15887.038813476422, 0.008, 0.04, 0.966, 192.0, 0.0, 0.0, 0.0, 0.0, 0.0, 0.0, 0.0, 0.0, 0.0, 1.7719023863479047E9, 0.0, 2026-02-23 19:06:26.347
73.0, 38982.582269022736, -15799.755251378449, -10612.541212146427, 87585.5788690542, -7808.73838767271, -5211.890365110679, 71153.55982226846, -15861.446066075096, 0.008, 0.04, 0.966, 192.0, 0.0, 0.0, 0.0, 0.0, 0.0, 0.0, 0.0, 0.0, 0.0, 1.7719023863529456E9, 0.0, 2026-02-23 19:06:26.352
74.0, 39058.19822051504, -15738.645582037638, -10629.77440712147, 87590.29508713426, -7825.010457636173, -5230.911699642146, 71170.03305793203, -15800.448155456563, 0.004, 0.038, 0.97, 192.0, 0.0, 32.0, 1.0, 48.0, 30.0, 80.0, 0.0, 0.0, 0.0, 1.7719023863569677E9, 0.0, 2026-02-23 19:06:26.356
75.0, 39060.47809844949, -15743.384151862163, -10569.268234880952, 87579.02980792879, -7767.722936597221, -5172.350129169242, 71163.03696191752, -15805.074966558812, 0.004, 0.038, 0.97, 192.0, 0.0, 0.0, 0.0, 0.0, 0.0, 0.0, 0.0, 0.0, 0.0, 1.771902386359952E9, 0.0, 2026-02-23 19:06:26.359
76.0, 39006.565690823285, -15791.440402441074, -10538.065199621344, 87562.10953737612, -7740.453808361746, -5143.225806143976, 71143.61329598585, -15853.131217137721, 0.004, 0.038, 0.97, 192.0, 0.0, 0.0, 0.0, 0.0, 0.0, 0.0, 0.0, 0.0, 0.0, 1.7719023863629568E9, 0.0, 2026-02-23 19:06:26.362
77.0, 39025.00587999891, -15778.834018568281, -10593.631636337237, 87562.64597924304, -7798.054253823073, -5202.346170228264, 71148.53067976603, -15840.547185009384, 0.004, 0.038, 0.97, 192.0, 0.0, 0.0, 0.0, 0.0, 0.0, 0.0, 0.0, 0.0, 0.0, 1.7719023863669713E9, 0.0, 2026-02-23 19:06:26.366
78.0, 39105.338049571285, -15714.103366625712, -10628.880337343257, 87568.63624675707, -7828.139701859916, -5235.1808828331095, 71166.47913056363, -15775.88358830018, 0.004, 0.038, 0.97, 192.0, 0.0, 0.0, 0.0, 0.0, 0.0, 0.0, 0.0, 0.0, 0.0, 1.7719023863710418E9, 0.0, 2026-02-23 19:06:26.371
79.0, 39130.997852205976, -15704.894447910125, -10581.494639098006, 87562.80244145423, -7777.49064892419, -5183.54835314135, 71167.01557243057, -15766.674669584594, 0.004, 0.038, 0.97, 192.0, 0.0, 0.0, 0.0, 0.0, 0.0, 0.0, 0.0, 0.0, 0.0, 1.7719023863760564E9, 0.0, 2026-02-23 19:06:26.376
80.0, 39085.10972083923, -15755.409390379118, -10542.13321711221, 87548.63143546956, -7737.883357749386, -5142.77877125487, 71150.92231642274, -15817.055501586856, 0.004, 0.038, 0.97, 192.0, 0.0, 0.0, 0.0, 0.0, 0.0, 0.0, 0.0, 0.0, 0.0, 1.771902386380102E9, 0.0, 2026-02-23 19:06:26.380
81.0, 39085.489700494974, -15753.420085122596, -10590.86002002478, 87543.19996156693, -7784.486744938701, -5192.243181734465, 71148.1954035992, -15815.110899819245, 0.004, 0.038, 0.97, 192.0, 0.0, 0.0, 0.0, 0.0, 0.0, 0.0, 0.0, 0.0, 0.0, 1.771902386383038E9, 0.0, 2026-02-23 19:06:26.383
82.0, 39162.312646187864, -15688.376508757652, -10637.39635198073, 87548.5196767473, -7828.966716404762, -5236.589042733794, 71165.11567415186, -15750.179082176577, 0.004, 0.038, 0.97, 192.0, 0.0, 0.0, 0.0, 0.0, 0.0, 0.0, 0.0, 0.0, 0.0, 1.7719023863870907E9, 0.0, 2026-02-23 19:06:26.387
83.0, 39200.51177746198, -15664.683659635028, -10598.079633483843, 87545.09985984562, -7788.73357638521, -5194.053673035344, 71169.51896780956, -15726.48623305395, 0.004, 0.038, 0.97, 192.0, 0.0, 0.0, 0.0, 0.0, 0.0, 0.0, 0.0, 0.0, 0.0, 1.7719023863911803E9, 0.0, 2026-02-23 19:06:26.391
84.0, 39151.51675361595, -15711.376453802164, -10546.42475204763, 87528.29134801523, -7736.318735637515, -5139.247195630932, 71151.1458338673, -15773.201378965543, 0.002, 0.038, 0.964, 192.0, 0.0, 16.0, 1.0, 48.0, 30.0, 32.0, 0.0, 0.0, 0.0, 1.7719023863951707E9, 0.0, 2026-02-23 19:06:26.395
85.0, 39131.37783186172, -15727.313247598799, -10583.193371676609, 87520.53529268925, -7772.0815267660055, -5177.111050738222, 71144.0379791305, -15789.138172762177, 0.002, 0.038, 0.964, 192.0, 0.0, 0.0, 0.0, 0.0, 0.0, 0.0, 0.0, 0.0, 0.0, 1.7719023863991778E9, 0.0, 2026-02-23 19:06:26.399
86.0, 39199.68476291714, -15673.534950439329, -10636.971668836079, 87529.29717651573, -7827.335039059525, -5234.756199688459, 71163.10401715088, -15735.44928258053, 0.002, 0.038, 0.964, 192.0, 0.0, 0.0, 0.0, 0.0, 0.0, 0.0, 0.0, 0.0, 0.0, 1.7719023864032812E9, 0.0, 2026-02-23 19:06:26.403
87.0, 39247.15986814021, -15638.28624943331, -10608.875526055757, 87528.09018231514, -7800.915277113352, -5207.442367964073, 71171.10594166588, -15700.133526341144, 0.002, 0.038, 0.964, 192.0, 0.0, 0.0, 0.0, 0.0, 0.0, 0.0, 0.0, 0.0, 0.0, 1.7719023864081876E9, 0.0, 2026-02-23 19:06:26.408
88.0, 39200.77999839545, -15679.39110748662, -10547.27411833693, 87510.4546559399, -7738.084523449484, -5145.192759656044, 71152.66575249025, -15741.193680905544, 0.002, 0.038, 0.964, 192.0, 0.0, 0.0, 0.0, 0.0, 0.0, 0.0, 0.0, 0.0, 0.0, 1.7719023864111798E9, 0.0, 2026-02-23 19:06:26.411
89.0, 39162.62557061024, -15710.147107857121, -10563.56854004485, 87499.12232150105, -7757.1058579809505, -5163.230617431476, 71140.14877559528, -15771.949681276046, 0.002, 0.038, 0.964, 192.0, 0.0, 0.0, 0.0, 0.0, 0.0, 0.0, 0.0, 0.0, 0.0, 1.771902386415754E9, 0.0, 2026-02-23 19:06:26.415
90.0, 39217.02971661445, -15662.58259565623, -10623.493566929528, 87503.79383609223, -7821.680047712332, -5229.168263574632, 71153.60452575739, -15724.362817330697, 0.002, 0.038, 0.964, 192.0, 0.0, 0.0, 0.0, 0.0, 0.0, 0.0, 0.0, 0.0, 0.0, 1.7719023864191685E9, 0.0, 2026-02-23 19:06:26.419
91.0, 39276.06067372092, -15617.588534067696, -10611.803604579402, 87506.34193496013, -7809.45364349528, -5216.941859357579, 71166.41207533027, -15679.34640399771, 0.002, 0.038, 0.964, 192.0, 0.0, 0.0, 0.0, 0.0, 0.0, 0.0, 0.0, 0.0, 0.0, 1.7719023864231875E9, 0.0, 2026-02-23 19:06:26.423
92.0, 39237.459211046604, -15653.776008340838, -10544.27898457992, 87492.23798420883, -7743.381886885391, -5148.657280046616, 71152.41988330125, -15715.48917478194, 0.002, 0.038, 0.964, 192.0, 0.0, 0.0, 0.0, 0.0, 0.0, 0.0, 0.0, 0.0, 0.0, 1.7719023864279392E9, 0.0, 2026-02-23 19:06:26.427
93.0, 39184.23970749852, -15697.943055384525, -10547.296470081386, 87477.70935031287, -7745.460599119735, -5150.825399258781, 71135.23139181512, -15759.611518336716, 0.002, 0.038, 0.964, 192.0, 0.0, 0.0, 0.0, 0.0, 0.0, 0.0, 0.0, 0.0, 0.0, 1.7719023864314773E9, 0.0, 2026-02-23 19:06:26.431
94.0, 39224.31638530688, -15661.800284600293, -10612.585915635338, 87479.83276603612, -7811.666466196355, -5218.707647169548, 71144.21679308615, -15723.602858019218, 0.006, 0.036000000000000004, 0.9580000000000001, 192.0, 0.0, 48.0, 1.0, 32.0, 29.0, 240.0, 0.0, 0.0, 0.0, 1.771902386436227E9, 0.0, 2026-02-23 19:06:26.436
95.0, 39290.25403145004, -15608.580781052207, -10620.520784916973, 87484.14665271601, -7818.439044766313, -5228.028324607411, 71159.52773803804, -15670.38335447113, 0.006, 0.036000000000000004, 0.9580000000000001, 192.0, 0.0, 0.0, 0.0, 0.0, 0.0, 0.0, 0.0, 0.0, 0.0, 1.7719023864396589E9, 0.0, 2026-02-23 19:06:26.439
96.0, 39260.41445260221, -15632.094816219189, -10552.683240495115, 87470.2438676648, -7751.853198033953, -5160.324890652286, 71147.21192684316, -15693.942093127025, 0.006, 0.036000000000000004, 0.9580000000000001, 192.0, 0.0, 0.0, 0.0, 0.0, 0.0, 0.0, 0.0, 0.0, 0.0, 1.7719023864422522E9, 0.0, 2026-02-23 19:06:26.442
97.0, 39196.33200124884, -15687.705956423993, -10536.455874020563, 87455.08938492411, -7737.302212393548, -5145.483332333963, 71128.50351673407, -15749.486178098463, 0.006, 0.036000000000000004, 0.9580000000000001, 192.0, 0.0, 0.0, 0.0, 0.0, 0.0, 0.0, 0.0, 0.0, 0.0, 1.7719023864474187E9, 0.0, 2026-02-23 19:06:26.447
98.0, 39219.84603641582, -15668.282290492332, -10603.354645175295, 87456.51989656924, -7801.988160847207, -5212.98560058899, 71134.82906041492, -15730.084863911256, 0.006, 0.036000000000000004, 0.9580000000000001, 192.0, 0.0, 0.0, 0.0, 0.0, 0.0, 0.0, 0.0, 0.0, 0.0, 1.7719023864513404E9, 0.0, 2026-02-23 19:06:26.451
99.0, 39292.10922623983, -15612.157060165056, -10628.34389547633, 87464.36535887305, -7823.155262846382, -5234.8903101551905, 71153.91745017975, -15673.847874861704, 0.006, 0.036000000000000004, 0.9580000000000001, 192.0, 0.0, 0.0, 0.0, 0.0, 0.0, 0.0, 0.0, 0.0, 0.0, 1.7719023864552977E9, 0.0, 2026-02-23 19:06:26.455
100.0, 39275.54658359845, -15622.394159125586, -10568.888255225213, 87452.34012035611, -7761.240930705182, -5170.047899490345, 71145.20026984219, -15684.1520290556, 0.006, 0.036000000000000004, 0.9580000000000001, 192.0, 0.0, 0.0, 0.0, 0.0, 0.0, 0.0, 0.0, 0.0, 0.0, 1.7719023864593215E9, 0.0, 2026-02-23 19:06:26.459
101.0, 39199.90828036169, -15682.274482521354, -10539.115731610744, 87432.3353090686, -7731.490758835168, -5139.716582264493, 71120.92627536372, -15743.987648962457, 0.006, 0.036000000000000004, 0.9580000000000001, 192.0, 0.0, 0.0, 0.0, 0.0, 0.0, 0.0, 0.0, 0.0, 0.0, 1.7719023864633484E9, 0.0, 2026-02-23 19:06:26.463
102.0, 39202.9034141187, -15681.536874954329, -10599.510145128983, 87430.34600381208, -7792.8015938760755, -5201.921487083613, 71121.50742071956, -15743.227689650976, 0.006, 0.036000000000000004, 0.9580000000000001, 192.0, 0.0, 0.0, 0.0, 0.0, 0.0, 0.0, 0.0, 0.0, 0.0, 1.7719023864663494E9, 0.0, 2026-02-23 19:06:26.466
103.0, 39271.70208355213, -15625.925734749526, -10636.703447902615, 87437.3868033155, -7827.379742548435, -5238.8242171793245, 71139.18765058371, -15687.750659912905, 0.006, 0.036000000000000004, 0.9580000000000001, 192.0, 0.0, 0.0, 0.0, 0.0, 0.0, 0.0, 0.0, 0.0, 0.0, 1.771902386470374E9, 0.0, 2026-02-23 19:06:26.470
104.0, 39265.73416778257, -15626.551583594273, -10577.493676840506, 87427.79790494418, -7770.561608143045, -5181.603751373738, 71134.02439761453, -15688.309453524287, 0.012, 0.032, 0.966, 192.0, 0.0, 96.0, 1.0, 0.0, 30.0, 48.0, 0.0, 0.0, 0.0, 1.7719023864753785E9, 0.0, 2026-02-23 19:06:26.475
105.0, 39181.17751850814, -15694.657348949595, -10527.738693682992, 87406.74256166727, -7719.219651129205, -5129.613593770694, 71107.93991183519, -15756.392867135153, 0.012, 0.032, 0.966, 192.0, 0.0, 0.0, 0.0, 0.0, 0.0, 0.0, 0.0, 0.0, 0.0, 1.7719023864784107E9, 0.0, 2026-02-23 19:06:26.478
106.0, 39150.55562860437, -15716.83027944926, -10571.928092471135, 87398.07008481862, -7763.453753406257, -5173.132440225178, 71098.57453090842, -15778.543445890362, 0.012, 0.032, 0.966, 192.0, 0.0, 0.0, 0.0, 0.0, 0.0, 0.0, 0.0, 0.0, 0.0, 1.771902386482704E9, 0.0, 2026-02-23 19:06:26.482
107.0, 39203.216338541075, -15671.858569605181, -10623.828843096357, 87402.85335813205, -7814.706303442276, -5226.039019350889, 71112.25379851506, -15733.616439535195, 0.012, 0.032, 0.966, 192.0, 0.0, 0.0, 0.0, 0.0, 0.0, 0.0, 0.0, 0.0, 0.0, 1.7719023864865088E9, 0.0, 2026-02-23 19:06:26.486
108.0, 39205.78678915343, -15665.041287546312, -10582.589874576315, 87394.51615745023, -7770.069869765029, -5183.16837348561, 71109.0798508024, -15726.77680573187, 0.012, 0.032, 0.966, 192.0, 0.0, 0.0, 0.0, 0.0, 0.0, 0.0, 0.0, 0.0, 0.0, 1.7719023864914472E9, 0.0, 2026-02-23 19:06:26.491
109.0, 39115.46338980954, -15737.393884348141, -10521.79312965788, 87371.80678508364, -7708.267296346105, -5119.711770976994, 71080.96135627764, -15799.017643811423, 0.012, 0.032, 0.966, 192.0, 0.0, 0.0, 0.0, 0.0, 0.0, 0.0, 0.0, 0.0, 0.0, 1.771902386495449E9, 0.0, 2026-02-23 19:06:26.495
110.0, 39058.578200170785, -15786.388908194174, -10553.622013762239, 87362.03907275667, -7742.0854857069835, -5155.139285938655, 71067.59501309336, -15847.967964168545, 0.012, 0.032, 0.966, 192.0, 0.0, 0.0, 0.0, 0.0, 0.0, 0.0, 0.0, 0.0, 0.0, 1.771902386499836E9, 0.0, 2026-02-23 19:06:26.499
111.0, 39096.08442736679, -15754.671782812095, -10614.9552005476, 87366.95645653683, -7804.938591115308, -5220.361676259241, 71079.35203067685, -15816.31789401983, 0.012, 0.032, 0.966, 192.0, 0.0, 0.0, 0.0, 0.0, 0.0, 0.0, 0.0, 0.0, 0.0, 1.7719023865034783E9, 0.0, 2026-02-23 19:06:26.503
112.0, 39112.69177349708, -15738.444416337541, -10587.507258356483, 87362.91079079043, -7782.542143171089, -5196.020626547412, 71081.65426035575, -15800.045824056368, 0.012, 0.032, 0.966, 192.0, 0.0, 0.0, 0.0, 0.0, 0.0, 0.0, 0.0, 0.0, 0.0, 1.7719023865075157E9, 0.0, 2026-02-23 19:06:26.507
113.0, 39031.57729286877, -15804.51617294743, -10518.261554033943, 87341.9672062358, -7717.319752850503, -5125.992611168935, 71056.44149261016, -15866.072877177345, 0.006, 0.028, 0.972, 192.0, 0.0, 48.0, 0.0, 224.0, 30.0, 96.0, 0.0, 0.0, 0.0, 1.7719023865105689E9, 0.0, 2026-02-23 19:06:26.510
114.0, 38955.53665823182, -15865.245862632497, -10538.556937999361, 87327.0585926841, -7735.558776326035, -5144.678669533571, 71036.48138481157, -15926.802566862414, 0.006, 0.028, 0.972, 192.0, 0.0, 0.0, 0.0, 0.0, 0.0, 0.0, 0.0, 0.0, 0.0, 1.7719023865145793E9, 0.0, 2026-02-23 19:06:26.514
115.0, 38979.855356199194, -15840.837757687303, -10607.690883599626, 87329.29376712964, -7802.099919569483, -5214.349057000763, 71044.34919885984, -15902.416813661674, 0.006, 0.028, 0.972, 192.0, 0.0, 0.0, 0.0, 0.0, 0.0, 0.0, 0.0, 0.0, 0.0, 1.771902386518562E9, 0.0, 2026-02-23 19:06:26.518
116.0, 39016.19929268352, -15814.507402718951, -10602.013540507978, 87331.9089212309, -7794.679140410321, -5207.934106342091, 71054.98862922056, -15876.041755204411, 0.006, 0.028, 0.972, 192.0, 0.0, 0.0, 0.0, 0.0, 0.0, 0.0, 0.0, 0.0, 0.0, 1.7719023865235944E9, 0.0, 2026-02-23 19:06:26.523
117.0, 38957.77183267735, -15868.933900467624, -10533.192519330087, 87315.99447917873, -7727.378037855392, -5137.570814796783, 71036.99547493404, -15930.445901208628, 0.006, 0.028, 0.972, 192.0, 0.0, 0.0, 0.0, 0.0, 0.0, 0.0, 0.0, 0.0, 0.0, 1.7719023865276055E9, 0.0, 2026-02-23 19:06:26.527
118.0, 38871.82937524669, -15936.547927444928, -10526.442292504584, 87297.82251093656, -7724.964049454218, -5133.860425217203, 71013.03440487795, -15997.970521208112, 0.006, 0.028, 0.972, 192.0, 0.0, 0.0, 0.0, 0.0, 0.0, 0.0, 0.0, 0.0, 0.0, 1.7719023865308516E9, 0.0, 2026-02-23 19:06:26.530
119.0, 38882.26763990732, -15922.600438904816, -10594.413947393174, 87298.06838012558, -7794.992064832696, -5207.665885408626, 71017.50475376901, -15984.06773615691, 0.006, 0.028, 0.972, 192.0, 0.0, 0.0, 0.0, 0.0, 0.0, 0.0, 0.0, 0.0, 0.0, 1.7719023865346217E9, 0.0, 2026-02-23 19:06:26.534
120.0, 38930.078021297224, -15881.38382212923, -10608.115566744276, 87300.14709235991, -7807.799614405587, -5220.60754544825, 71028.83708820786, -15942.985229848056, 0.006, 0.028, 0.972, 192.0, 0.0, 0.0, 0.0, 0.0, 0.0, 0.0, 0.0, 0.0, 0.0, 1.7719023865386531E9, 0.0, 2026-02-23 19:06:26.538
121.0, 38892.86236677913, -15916.610171390794, -10541.261499078453, 87285.84197590852, -7743.426590374303, -5152.814704515303, 71015.04606187894, -15978.144523876254, 0.006, 0.028, 0.972, 192.0, 0.0, 0.0, 0.0, 0.0, 0.0, 0.0, 0.0, 0.0, 0.0, 1.7719023865426393E9, 0.0, 2026-02-23 19:06:26.542
122.0, 38807.456351215405, -15989.789782737469, -10519.870879634724, 87268.20644953329, -7723.466482575713, -5131.669954260583, 70991.64378543422, -16051.122969522832, 0.006, 0.028, 0.972, 192.0, 0.0, 0.0, 0.0, 0.0, 0.0, 0.0, 0.0, 0.0, 0.0, 1.7719023865467455E9, 0.0, 2026-02-23 19:06:26.546
123.0, 38805.1094180476, -15989.119230403809, -10586.61318857827, 87268.07233906655, -7789.091204296495, -5200.513327182928, 70994.2589395355, -16050.541824166994, 0.008, 0.032, 0.97, 192.0, 0.0, 64.0, 1.0, 0.0, 30.0, 80.0, 0.0, 0.0, 0.0, 1.771902386551679E9, 0.0, 2026-02-23 19:06:26.551
124.0, 38860.54174429676, -15939.408950735207, -10613.412930180184, 87272.38622574642, -7818.997838377695, -5230.107036841755, 71008.54170424244, -16000.988006709578, 0.008, 0.032, 0.97, 192.0, 0.0, 0.0, 0.0, 0.0, 0.0, 0.0, 0.0, 0.0, 0.0, 1.7719023865557067E9, 0.0, 2026-02-23 19:06:26.555
125.0, 38846.50484877883, -15955.748075932037, -10550.626880005228, 87262.3949959749, -7759.475142893213, -5168.036242489367, 71001.43384950564, -16017.349483650862, 0.008, 0.032, 0.97, 192.0, 0.0, 0.0, 0.0, 0.0, 0.0, 0.0, 0.0, 0.0, 0.0, 1.771902386558705E9, 0.0, 2026-02-23 19:06:26.558
126.0, 38762.61875183806, -16027.40776865575, -10514.059426076345, 87243.597178888, -7725.187566898771, -5133.502797305918, 70977.36102072729, -16088.740955441113, 0.008, 0.032, 0.97, 192.0, 0.0, 0.0, 0.0, 0.0, 0.0, 0.0, 0.0, 0.0, 0.0, 1.771902386562763E9, 0.0, 2026-02-23 19:06:26.562
127.0, 38745.81024000767, -16038.628344372315, -10570.877560481735, 87241.11613525345, -7785.090242038995, -5193.852507335247, 70976.13167478224, -16099.916827668767, 0.008, 0.032, 0.97, 192.0, 0.0, 0.0, 0.0, 0.0, 0.0, 0.0, 0.0, 0.0, 0.0, 1.7719023865667565E9, 0.0, 2026-02-23 19:06:26.566
128.0, 38807.29988900422, -15985.140619890764, -10614.709331358592, 87248.33574871252, -7827.647963481899, -5238.108961356755, 70993.63309069075, -16046.585565398404, 0.008, 0.032, 0.97, 192.0, 0.0, 0.0, 0.0, 0.0, 0.0, 0.0, 0.0, 0.0, 0.0, 1.771902386570758E9, 0.0, 2026-02-23 19:06:26.570
129.0, 38818.00637459831, -15982.167837878209, -10569.0447174364, 87242.94897829878, -7777.155372757361, -5184.040091519367, 70993.76720115748, -16043.635135130304, 0.008, 0.032, 0.97, 192.0, 0.0, 0.0, 0.0, 0.0, 0.0, 0.0, 0.0, 0.0, 0.0, 1.7719023865747645E9, 0.0, 2026-02-23 19:06:26.574
130.0, 38740.46817308285, -16049.915975322245, -10520.675542435116, 87223.90529202287, -7724.472311076202, -5128.96539318149, 70970.34257296832, -16111.271513852063, 0.008, 0.032, 0.97, 192.0, 0.0, 0.0, 0.0, 0.0, 0.0, 0.0, 0.0, 0.0, 0.0, 1.7719023865787911E9, 0.0, 2026-02-23 19:06:26.578
131.0, 38704.79478893218, -16075.441667490206, -10566.496618568495, 87216.59627158598, -7768.952282542263, -5173.69123383656, 70962.49711066451, -16136.819557764478, 0.008, 0.032, 0.97, 192.0, 0.0, 0.0, 0.0, 0.0, 0.0, 0.0, 0.0, 0.0, 0.0, 1.7719023865838127E9, 0.0, 2026-02-23 19:06:26.583
132.0, 38759.93654250343, -16027.31836167793, -10623.605325651804, 87224.0841059785, -7825.926879158841, -5233.79507467688, 70979.32797423935, -16088.830362418934, 0.008, 0.032, 0.97, 192.0, 0.0, 0.0, 0.0, 0.0, 0.0, 0.0, 0.0, 0.0, 0.0, 1.77190238658686E9, 0.0, 2026-02-23 19:06:26.586
133.0, 38783.80820558169, -16011.582733581394, -10584.534476343928, 87220.86545477694, -7789.404128718869, -5199.038112048878, 70983.08306730785, -16073.005327344577, 0.008, 0.032, 0.966, 192.0, 0.0, 64.0, 1.0, 0.0, 30.0, 48.0, 0.0, 0.0, 0.0, 1.771902386590813E9, 0.0, 2026-02-23 19:06:26.590
134.0, 38706.918204655434, -16076.648661690791, -10521.65901919115, 87199.47483533321, -7727.646258788855, -5135.8050269848145, 70957.71383735107, -16137.937144987243, 0.008, 0.032, 0.966, 192.0, 0.0, 0.0, 0.0, 0.0, 0.0, 0.0, 0.0, 0.0, 0.0, 1.7719023865948355E9, 0.0, 2026-02-23 19:06:26.594
135.0, 38648.26722720471, -16125.643685536825, -10550.604528260772, 87189.0812741615, -7759.586901615489, -5168.304463422831, 70943.92281102214, -16186.820410111, 0.008, 0.032, 0.966, 192.0, 0.0, 0.0, 0.0, 0.0, 0.0, 0.0, 0.0, 0.0, 0.0, 1.7719023865989337E9, 0.0, 2026-02-23 19:06:26.598
136.0, 38686.04167533418, -16093.054842120988, -10613.14470924672, 87194.91507946434, -7822.64117272391, -5234.800903177369, 70957.02093327296, -16154.455084139716, 0.008, 0.032, 0.966, 192.0, 0.0, 0.0, 0.0, 0.0, 0.0, 0.0, 0.0, 0.0, 0.0, 1.7719023866028771E9, 0.0, 2026-02-23 19:06:26.602
137.0, 38719.52458852823, -16069.496103465093, -10594.9503892601, 87194.89272771988, -7803.1280998144275, -5214.6396296786825, 70964.73228511003, -16130.896345483823, 0.008, 0.032, 0.966, 192.0, 0.0, 0.0, 0.0, 0.0, 0.0, 0.0, 0.0, 0.0, 0.0, 1.7719023866069765E9, 0.0, 2026-02-23 19:06:26.606
138.0, 38650.435346416874, -16130.449310594717, -10523.111882580744, 87175.55846876603, -7728.808549500532, -5137.637870030149, 70942.2911336769, -16191.603683424437, 0.008, 0.032, 0.966, 192.0, 0.0, 0.0, 0.0, 0.0, 0.0, 0.0, 0.0, 0.0, 0.0, 1.771902386611925E9, 0.0, 2026-02-23 19:06:26.611
139.0, 38567.77859542115, -16195.828163126489, -10530.577365228817, 87158.79466042455, -7730.060247190028, -5139.448361331029, 70920.00644445496, -16256.893128978389, 0.008, 0.032, 0.966, 192.0, 0.0, 0.0, 0.0, 0.0, 0.0, 0.0, 0.0, 0.0, 0.0, 1.771902386614925E9, 0.0, 2026-02-23 19:06:26.614
140.0, 38579.423854282366, -16179.801962352034, -10596.29149392742, 87158.86171565793, -7792.488669453701, -5205.631876663194, 70924.63325555722, -16240.911631692843, 0.008, 0.032, 0.966, 192.0, 0.0, 0.0, 0.0, 0.0, 0.0, 0.0, 0.0, 0.0, 0.0, 1.7719023866179476E9, 0.0, 2026-02-23 19:06:26.617
141.0, 38604.74838075023, -16162.255842954619, -10587.842534523314, 87157.58766622398, -7783.369157715936, -5197.0264550479005, 70929.99767422648, -16223.432567528793, 0.008, 0.032, 0.966, 192.0, 0.0, 0.0, 0.0, 0.0, 0.0, 0.0, 0.0, 0.0, 0.0, 1.7719023866229432E9, 0.0, 2026-02-23 19:06:26.622
142.0, 38517.28600469661, -16235.882489190399, -10504.51523119393, 87132.2631397561, -7702.411139298813, -5113.274468573865, 70899.64400525618, -16296.7462893422, 0.008, 0.032, 0.966, 192.0, 0.0, 0.0, 0.0, 0.0, 0.0, 0.0, 0.0, 0.0, 0.0, 1.7719023866269805E9, 0.0, 2026-02-23 19:06:26.626
143.0, 38388.80817756751, -16344.020228865174, -10484.532771650884, 87107.29624119952, -7686.451993757724, -5096.689474188027, 70863.9259176166, -16404.481697616782, 0.01, 0.028, 0.966, 192.0, 0.0, 80.0, 0.0, 224.0, 30.0, 48.0, 0.0, 0.0, 0.0, 1.7719023866309912E9, 0.0, 2026-02-23 19:06:26.630
144.0, 38352.10661317189, -16371.468171056293, -10551.833874205813, 87101.2612701966, -7756.524712625112, -5170.226713445987, 70856.5274902019, -16432.15315725245, 0.01, 0.028, 0.966, 192.0, 0.0, 0.0, 0.0, 0.0, 0.0, 0.0, 0.0, 0.0, 0.0, 1.7719023866350288E9, 0.0, 2026-02-23 19:06:26.635
145.0, 38361.67315979876, -16362.795694207633, -10568.307109869374, 87099.58488936245, -7781.893942581885, -5189.873896822202, 70859.56732744782, -16423.614790870524, 0.01, 0.028, 0.966, 192.0, 0.0, 0.0, 0.0, 0.0, 0.0, 0.0, 0.0, 0.0, 0.0, 1.771902386639022E9, 0.0, 2026-02-23 19:06:26.639
146.0, 38288.739417641096, -16423.793604826165, -10506.12455679471, 87081.34586588692, -7886.902438032918, -5126.01496291339, 70837.90848707063, -16481.528160754224, 0.01, 0.028, 0.966, 192.0, 0.0, 0.0, 0.0, 0.0, 0.0, 0.0, 0.0, 0.0, 0.0, 1.771902386642046E9, 0.0, 2026-02-23 19:06:26.642
147.0, 38171.23629703955, -16517.35800711608, -10494.345187466764, 87061.00577843259, -8052.908844102484, -5114.6155732411835, 70807.1077832112, -16554.7077721009, 0.01, 0.028, 0.966, 192.0, 0.0, 0.0, 0.0, 0.0, 0.0, 0.0, 0.0, 0.0, 0.0, 1.7719023866460614E9, 0.0, 2026-02-23 19:06:26.646
148.0, 38151.142078774225, -16525.292876397714, -10577.38191811823, 87061.4528133217, -8020.744683831297, -5198.993408559967, 70809.49941986793, -16573.729106632367, 0.01, 0.028, 0.966, 192.0, 0.0, 0.0, 0.0, 0.0, 0.0, 0.0, 0.0, 0.0, 0.0, 1.7719023866510656E9, 0.0, 2026-02-23 19:06:26.651
149.0, 38203.780436966474, -16475.716707195843, -10623.270049484974, 87070.05823493698, -7857.822818496564, -5247.161417861154, 70829.21365847751, -16536.021713736263, 0.01, 0.028, 0.966, 192.0, 0.0, 0.0, 0.0, 0.0, 0.0, 0.0, 0.0, 0.0, 0.0, 1.771902386655073E9, 0.0, 2026-02-23 19:06:26.655
150.0, 38185.74257919104, -16487.049041634684, -10570.341118614808, 87062.52569705555, -7946.268671306214, -5191.282056722886, 70825.05623400882, -16545.74472257432, 0.01, 0.028, 0.966, 192.0, 0.0, 0.0, 0.0, 0.0, 0.0, 0.0, 0.0, 0.0, 0.0, 1.7719023866591685E9, 0.0, 2026-02-23 19:06:26.659
151.0, 38098.05668569287, -16553.16550173348, -10536.32176355383, 87045.15839161378, -8086.592922996631, -5156.882722006169, 70801.69866105303, -16593.28688303076, 0.01, 0.028, 0.966, 192.0, 0.0, 0.0, 0.0, 0.0, 0.0, 0.0, 0.0, 0.0, 0.0, 1.7719023866631758E9, 0.0, 2026-02-23 19:06:26.663
152.0, 38125.30346218389, -16545.007115007294, -10611.691845857125, 87047.93000792623, -8029.260698468769, -5235.024420621922, 70809.05238497882, -16591.67755742998, 0.01, 0.028, 0.966, 192.0, 0.0, 0.0, 0.0, 0.0, 0.0, 0.0, 0.0, 0.0, 0.0, 1.771902386666185E9, 0.0, 2026-02-23 19:06:26.666
