%OpenBCI Raw EXG Data
%Number of channels = 8
%Sample Rate = 250 Hz
%Board = OpenBCI_GUI$BoardCytonSerial
Sample Index, EXG Channel 0, EXG Channel 1, EXG Channel 2, EXG Channel 3, EXG Channel 4, EXG Channel 5, EXG Channel 6, EXG Channel 7, Accel Channel 0, Accel Channel 1, Accel Channel 2, Not Used, Digital Channel 0 (D11), Digital Channel 1 (D12), Digital Channel 2 (D13), Digital Channel 3 (D17), Not Used, Digital Channel 4 (D18), Analog Channel 0, Analog Channel 1, Analog Channel 2, Timestamp, Marker Channel, Timestamp (Formatted)
0.0, 0.0, 0.0, 0.0, 0.0, 0.0, 0.0, 0.0, 0.0, 0.0, 0.0, 0.0, 192.0, 0.0, 0.0, 0.0, 0.0, 0.0, 0.0, 0.0, 0.0, 0.0, 1.772162577186458E9, 0.0, 2026-02-26 19:22:57.186
1.0, -9592.51935392849, 18936.062626369316, 18979.447362357067, 4960.701460921939, 20238.521127524513, 2161.1007644058186, 10097.177040240413, 20153.18216719415, 0.014, -0.02, 1.018, 192.0, 0.0, 112.0, 255.0, 96.0, 31.0, 208.0, 0.0, 0.0, 0.0, 1.772162577203493E9, 0.0, 2026-02-26 19:22:57.203
2.0, -9583.623359635278, 18922.964504118503, 18969.590243052273, 4960.723812666394, 20228.28402856398, 2159.7596597385004, 10136.739627926307, 20144.5543938344, 0.014, -0.02, 1.018, 192.0, 0.0, 0.0, 0.0, 0.0, 0.0, 0.0, 0.0, 0.0, 0.0, 1.7721625772065282E9, 0.0, 2026-02-26 19:22:57.206
3.0, -9594.843935351842, 18920.28229478387, 18967.220958140013, 4961.751992911339, 20226.00415062954, 2160.1172876497853, 10148.407238531976, 20143.07917870035, 0.014, -0.02, 1.018, 192.0, 0.0, 0.0, 0.0, 0.0, 0.0, 0.0, 0.0, 0.0, 0.0, 1.7721625772095447E9, 0.0, 2026-02-26 19:22:57.209
4.0, -9585.99264454754, 18913.465012725, 18963.84584472726, 4964.255388290333, 20222.04789186095, 2162.7547934955114, 10148.608404232074, 20140.329914132348, 0.014, -0.02, 1.018, 192.0, 0.0, 0.0, 0.0, 0.0, 0.0, 0.0, 0.0, 0.0, 0.0, 1.7721625772145033E9, 0.0, 2026-02-26 19:22:57.214
5.0, -9583.623359635278, 18912.146259802135, 18962.460036571032, 4961.439068488964, 20220.90795289373, 2157.345671337327, 10148.563700743163, 20139.055864698395, 0.014, -0.02, 1.018, 192.0, 0.0, 0.0, 0.0, 0.0, 0.0, 0.0, 0.0, 0.0, 0.0, 1.772162577217506E9, 0.0, 2026-02-26 19:22:57.217
6.0, -9563.730307070055, 18909.642864423142, 18961.901242959648, 4958.466286476408, 20219.969179626605, 2154.3281858358605, 10148.317831554155, 20138.31825713137, 0.014, -0.02, 1.018, 192.0, 0.0, 0.0, 0.0, 0.0, 0.0, 0.0, 0.0, 0.0, 0.0, 1.772162577221586E9, 0.0, 2026-02-26 19:22:57.221
7.0, -9572.961577530095, 18910.60398943472, 18960.716600503518, 4961.372013255598, 20219.119813337304, 2157.5691887818803, 10148.586052487619, 20137.31242863088, 0.014, -0.02, 1.018, 192.0, 0.0, 0.0, 0.0, 0.0, 0.0, 0.0, 0.0, 0.0, 0.0, 1.7721625772255752E9, 0.0, 2026-02-26 19:22:57.225
8.0, -9561.048097735416, 18905.865419610192, 18957.877928957692, 4963.406022001031, 20216.638769702768, 2160.6537295167127, 10148.988383887814, 20134.563164062878, 0.016, -0.024, 1.02, 192.0, 0.0, 128.0, 255.0, 64.0, 31.0, 224.0, 0.0, 0.0, 0.0, 1.7721625772295976E9, 0.0, 2026-02-26 19:22:57.229
9.0, -9564.914949526185, 18906.379509732666, 18958.03439116888, 4961.8190481447045, 20216.90699063623, 2158.2397411155393, 10148.228424576333, 20134.540812318424, 0.016, -0.024, 1.02, 192.0, 0.0, 0.0, 0.0, 0.0, 0.0, 0.0, 0.0, 0.0, 0.0, 1.7721625772336068E9, 0.0, 2026-02-26 19:22:57.233
10.0, -9568.46887689458, 18908.033538822358, 18961.18598713708, 4964.233036545877, 20220.32680753789, 2160.6537295167127, 10147.602575731586, 20137.69240828662, 0.016, -0.024, 1.02, 192.0, 0.0, 0.0, 0.0, 0.0, 0.0, 0.0, 0.0, 0.0, 0.0, 1.7721625772376518E9, 0.0, 2026-02-26 19:22:57.237
11.0, -9583.42219393518, 18910.492230712443, 18960.671897014607, 4966.2223418024, 20220.460918004625, 2162.4418690731372, 10147.267299564755, 20137.044207697418, 0.016, -0.024, 1.02, 192.0, 0.0, 0.0, 0.0, 0.0, 0.0, 0.0, 0.0, 0.0, 0.0, 1.7721625772426395E9, 0.0, 2026-02-26 19:22:57.242
12.0, -9582.215199734594, 18907.07241381078, 18957.430894068588, 4966.64702494705, 20216.90699063623, 2162.6206830287797, 10147.66963096495, 20133.98201870704, 0.016, -0.024, 1.02, 192.0, 0.0, 0.0, 0.0, 0.0, 0.0, 0.0, 0.0, 0.0, 0.0, 1.7721625772456584E9, 0.0, 2026-02-26 19:22:57.245
13.0, -9571.978100774062, 18905.328977743266, 18954.882795200683, 4963.406022001031, 20213.77774641249, 2157.613892270791, 10147.66963096495, 20131.54567856141, 0.016, -0.024, 1.02, 192.0, 0.0, 0.0, 0.0, 0.0, 0.0, 0.0, 0.0, 0.0, 0.0, 1.7721625772499115E9, 0.0, 2026-02-26 19:22:57.249
14.0, -9545.84891150581, 18900.858628852206, 18953.675801000096, 4962.176676055989, 20212.23547604507, 2156.116325392285, 10147.803741431682, 20130.405739594193, 0.016, -0.024, 1.02, 192.0, 0.0, 0.0, 0.0, 0.0, 0.0, 0.0, 0.0, 0.0, 0.0, 1.7721625772537532E9, 0.0, 2026-02-26 19:22:57.253
15.0, -9566.144295471227, 18903.004396319913, 18953.876966700194, 4965.484734235374, 20213.017787101006, 2160.296101605428, 10147.647279220495, 20130.74101576102, 0.016, -0.024, 1.02, 192.0, 0.0, 0.0, 0.0, 0.0, 0.0, 0.0, 0.0, 0.0, 0.0, 1.7721625772578793E9, 0.0, 2026-02-26 19:22:57.257
16.0, -9575.241455464537, 18899.94220732954, 18950.725370731994, 4966.6917284359615, 20210.156763810726, 2161.3689853392825, 10147.110837353568, 20127.947047704107, 0.016, -0.024, 1.02, 192.0, 0.0, 0.0, 0.0, 0.0, 0.0, 0.0, 0.0, 0.0, 0.0, 1.7721625772618597E9, 0.0, 2026-02-26 19:22:57.261
17.0, -9575.04028976444, 18901.73034688596, 18949.071341642302, 4962.534303967274, 20208.39097599876, 2155.8928079477323, 10146.932023397925, 20126.27066686996, 0.016, -0.024, 1.02, 192.0, 0.0, 0.0, 0.0, 0.0, 0.0, 0.0, 0.0, 0.0, 0.0, 1.7721625772657328E9, 0.0, 2026-02-26 19:22:57.265
18.0, -9582.908103812708, 18896.522390427876, 18946.54559451885, 4964.545960968252, 20205.351138752838, 2158.9102934491984, 10147.468465264854, 20123.78962323542, 0.02, -0.024, 1.016, 192.0, 0.0, 160.0, 255.0, 64.0, 31.0, 192.0, 0.0, 0.0, 0.0, 1.772162577270786E9, 0.0, 2026-02-26 19:22:57.270
19.0, -9572.961577530095, 18892.901407826117, 18941.762321205417, 4967.094059836157, 20200.38905148376, 2163.0677179178856, 10147.20024433139, 20119.185163877628, 0.02, -0.024, 1.016, 192.0, 0.0, 0.0, 0.0, 0.0, 0.0, 0.0, 0.0, 0.0, 0.0, 1.772162577273865E9, 0.0, 2026-02-26 19:22:57.273
20.0, -9577.99072003254, 18887.872265323673, 18937.60489673673, 4972.011443616324, 20196.790420626454, 2169.057985431908, 10146.663802464462, 20115.45242255359, 0.02, -0.024, 1.016, 192.0, 0.0, 0.0, 0.0, 0.0, 0.0, 0.0, 0.0, 0.0, 0.0, 1.7721625772768917E9, 0.0, 2026-02-26 19:22:57.276
21.0, -9551.123923197261, 18884.586558888743, 18932.016960622903, 4975.0289291177905, 20192.275368246483, 2171.963712211098, 10146.663802464462, 20110.445631795603, 0.02, -0.024, 1.016, 192.0, 0.0, 0.0, 0.0, 0.0, 0.0, 0.0, 0.0, 0.0, 0.0, 1.7721625772818313E9, 0.0, 2026-02-26 19:22:57.281
22.0, -9550.36396388578, 18875.44469540652, 18925.110271586214, 4975.632426218084, 20185.681603632165, 2173.8412587453436, 10147.110837353568, 20103.96362590356, 0.02, -0.024, 1.016, 192.0, 0.0, 0.0, 0.0, 0.0, 0.0, 0.0, 0.0, 0.0, 0.0, 1.7721625772859228E9, 0.0, 2026-02-26 19:22:57.285
23.0, -9540.037457947428, 18869.32031742577, 18919.70114942803, 4974.626597717595, 20180.22777798507, 2173.2377616450503, 10147.446113520398, 20098.912131656663, 0.02, -0.024, 1.016, 192.0, 0.0, 0.0, 0.0, 0.0, 0.0, 0.0, 0.0, 0.0, 0.0, 1.7721625772898738E9, 0.0, 2026-02-26 19:22:57.289
24.0, -9543.278460893449, 18865.185244701534, 18916.326036015278, 4976.481792507386, 20176.964423294598, 2175.227066901573, 10147.312003053667, 20095.96170138856, 0.02, -0.024, 1.016, 192.0, 0.0, 0.0, 0.0, 0.0, 0.0, 0.0, 0.0, 0.0, 0.0, 1.7721625772939296E9, 0.0, 2026-02-26 19:22:57.293
25.0, -9529.88976596472, 18863.419456889565, 18913.44266098054, 4975.252446562344, 20173.768123837486, 2172.9024854782206, 10147.401410031487, 20092.966567631553, 0.02, -0.024, 1.016, 192.0, 0.0, 0.0, 0.0, 0.0, 0.0, 0.0, 0.0, 0.0, 0.0, 1.7721625772978864E9, 0.0, 2026-02-26 19:22:57.297
26.0, -9546.474760350557, 18860.156102199093, 18911.296893512834, 4973.687824450472, 20170.840045313842, 2170.712014521601, 10146.686154208917, 20090.329061785826, 0.02, -0.024, 1.016, 192.0, 0.0, 0.0, 0.0, 0.0, 0.0, 0.0, 0.0, 0.0, 0.0, 1.772162577301952E9, 0.0, 2026-02-26 19:22:57.301
27.0, -9527.02874267444, 18858.904404509594, 18909.821678378783, 4971.653815705039, 20169.74480983553, 2167.7168807645894, 10146.462636764365, 20088.96560537405, 0.02, -0.024, 1.016, 192.0, 0.0, 0.0, 0.0, 0.0, 0.0, 0.0, 0.0, 0.0, 0.0, 1.7721625773049824E9, 0.0, 2026-02-26 19:22:57.304
28.0, -9531.521443309957, 18853.383523629134, 18904.434907965053, 4971.229132560388, 20164.60390861081, 2167.2027906421176, 10146.77556118674, 20083.914111127153, 0.018000000000000002, -0.024, 1.016, 192.0, 0.0, 144.0, 255.0, 64.0, 31.0, 192.0, 0.0, 0.0, 0.0, 1.7721625773089275E9, 0.0, 2026-02-26 19:22:57.308
29.0, -9518.848004203797, 18848.48849159342, 18900.45629745201, 4974.291321550765, 20160.46883588658, 2171.1590494107068, 10146.14971234199, 20080.002555847474, 0.018000000000000002, -0.024, 1.016, 192.0, 0.0, 0.0, 0.0, 0.0, 0.0, 0.0, 0.0, 0.0, 0.0, 1.7721625773139892E9, 0.0, 2026-02-26 19:22:57.313
30.0, -9505.995751141996, 18844.800453758296, 18899.428117207066, 4975.811240173726, 20159.105379474804, 2173.058947689408, 10145.657973963973, 20079.041430835896, 0.018000000000000002, -0.024, 1.016, 192.0, 0.0, 0.0, 0.0, 0.0, 0.0, 0.0, 0.0, 0.0, 0.0, 1.77216257731803E9, 0.0, 2026-02-26 19:22:57.318
31.0, -9498.150288838184, 18846.07450319225, 18899.94220732954, 4972.234961060877, 20159.217138197084, 2169.7508895100227, 10145.501511752786, 20079.264948280448, 0.018000000000000002, -0.024, 1.016, 192.0, 0.0, 0.0, 0.0, 0.0, 0.0, 0.0, 0.0, 0.0, 0.0, 1.7721625773221061E9, 0.0, 2026-02-26 19:22:57.322
32.0, -9505.839288930809, 18844.86750899166, 18899.137544529145, 4973.509010494829, 20158.546585863423, 2170.9355319661536, 10145.970898386347, 20078.415581991147, 0.018000000000000002, -0.024, 1.016, 192.0, 0.0, 0.0, 0.0, 0.0, 0.0, 0.0, 0.0, 0.0, 0.0, 1.772162577326121E9, 0.0, 2026-02-26 19:22:57.326
33.0, -9494.864582403254, 18844.912212480573, 18898.86932359568, 4970.469173248908, 20158.345420163325, 2167.605122042313, 10146.172064086446, 20077.856788379766, 0.018000000000000002, -0.024, 1.016, 192.0, 0.0, 0.0, 0.0, 0.0, 0.0, 0.0, 0.0, 0.0, 0.0, 1.772162577330041E9, 0.0, 2026-02-26 19:22:57.330
34.0, -9488.650797444678, 18842.609982801674, 18897.617625906187, 4971.027966860291, 20157.42899864066, 2167.2027906421176, 10146.328526297633, 20076.806256390366, 0.018000000000000002, -0.024, 1.016, 192.0, 0.0, 0.0, 0.0, 0.0, 0.0, 0.0, 0.0, 0.0, 0.0, 1.772162577333099E9, 0.0, 2026-02-26 19:22:57.333
35.0, -9486.885009632708, 18844.64399154711, 18899.584579418253, 4968.546923225752, 20159.306545174903, 2164.2970638629276, 10146.641450720008, 20078.572044202334, 0.018000000000000002, -0.024, 1.016, 192.0, 0.0, 0.0, 0.0, 0.0, 0.0, 0.0, 0.0, 0.0, 0.0, 1.772162577337226E9, 0.0, 2026-02-26 19:22:57.337
36.0, -9492.651759702178, 18843.101721179693, 18899.226951506967, 4970.759745926827, 20158.725399819064, 2167.471011575581, 10146.350878042089, 20078.370878502235, 0.018000000000000002, -0.024, 1.016, 192.0, 0.0, 0.0, 0.0, 0.0, 0.0, 0.0, 0.0, 0.0, 0.0, 1.7721625773411355E9, 0.0, 2026-02-26 19:22:57.341
37.0, -9496.138631837206, 18844.26401189137, 18899.763393373894, 4973.285493050277, 20159.507710875, 2170.2202761435838, 10145.81443617516, 20079.220244791537, 0.018000000000000002, -0.024, 1.016, 192.0, 0.0, 0.0, 0.0, 0.0, 0.0, 0.0, 0.0, 0.0, 0.0, 1.772162577346156E9, 0.0, 2026-02-26 19:22:57.346
38.0, -9493.724643436033, 18844.599288058198, 18901.395070719132, 4974.447783761952, 20161.072332986874, 2171.606084299813, 10146.172064086446, 20080.58370120331, 0.02, -0.024, 1.014, 192.0, 0.0, 160.0, 255.0, 64.0, 31.0, 176.0, 0.0, 0.0, 0.0, 1.772162577350191E9, 0.0, 2026-02-26 19:22:57.350
39.0, -9490.126012578728, 18847.86264274867, 18903.272617253377, 4980.058071620235, 20164.00041151052, 2178.177497169673, 10146.999078631292, 20082.97533786003, 0.02, -0.024, 1.014, 192.0, 0.0, 0.0, 0.0, 0.0, 0.0, 0.0, 0.0, 0.0, 0.0, 1.7721625773542297E9, 0.0, 2026-02-26 19:22:57.354
40.0, -9505.347550552791, 18848.890822993617, 18904.390204476145, 4986.875353679104, 20165.430923155658, 2186.2688286624943, 10147.535520498219, 20084.62936694972, 0.02, -0.024, 1.014, 192.0, 0.0, 0.0, 0.0, 0.0, 0.0, 0.0, 0.0, 0.0, 0.0, 1.7721625773572085E9, 0.0, 2026-02-26 19:22:57.357
41.0, -9502.665341218155, 18852.243584661912, 18906.603027177218, 4971.720870938405, 20166.548510378423, 2168.1639156536958, 10146.999078631292, 20085.612843705756, 0.02, -0.024, 1.014, 192.0, 0.0, 0.0, 0.0, 0.0, 0.0, 0.0, 0.0, 0.0, 0.0, 1.7721625773611777E9, 0.0, 2026-02-26 19:22:57.361
42.0, -9500.02783537243, 18851.1483491836, 18906.69243415504, 4968.837495903671, 20166.257937700502, 2165.258188874506, 10147.110837353568, 20085.366974516746, 0.02, -0.024, 1.014, 192.0, 0.0, 0.0, 0.0, 0.0, 0.0, 0.0, 0.0, 0.0, 0.0, 1.7721625773652318E9, 0.0, 2026-02-26 19:22:57.365
43.0, -9493.277608546927, 18851.416570117068, 18907.161820788602, 4968.815144159215, 20166.83908305634, 2165.6158167857907, 10146.462636764365, 20085.769305916943, 0.02, -0.024, 1.014, 192.0, 0.0, 0.0, 0.0, 0.0, 0.0, 0.0, 0.0, 0.0, 0.0, 1.772162577369312E9, 0.0, 2026-02-26 19:22:57.369
44.0, -9501.92773365113, 18853.607041073687, 18910.3134167568, 4969.731565681883, 20169.767161579988, 2166.442831330637, 10145.702677452884, 20089.055012351873, 0.02, -0.024, 1.014, 192.0, 0.0, 0.0, 0.0, 0.0, 0.0, 0.0, 0.0, 0.0, 0.0, 1.7721625773742807E9, 0.0, 2026-02-26 19:22:57.374
45.0, -9496.876239404231, 18856.11043645268, 18911.900390613126, 4972.145554083056, 20171.957632536607, 2169.8179447433886, 10145.993250130803, 20091.02196586394, 0.02, -0.024, 1.014, 192.0, 0.0, 0.0, 0.0, 0.0, 0.0, 0.0, 0.0, 0.0, 0.0, 1.7721625773783255E9, 0.0, 2026-02-26 19:22:57.378
46.0, -9493.098794591284, 18857.250375419902, 18914.247323780935, 4973.21843781691, 20174.483379660058, 2171.762546511, 10146.14971234199, 20093.279492053927, 0.02, -0.024, 1.014, 192.0, 0.0, 0.0, 0.0, 0.0, 0.0, 0.0, 0.0, 0.0, 0.0, 1.7721625773823297E9, 0.0, 2026-02-26 19:22:57.382
47.0, -9499.469041761045, 18863.821788289762, 18919.83525989476, 4973.441955261464, 20180.27248147398, 2171.5166773219917, 10146.216767575355, 20098.4427450231, 0.02, -0.024, 1.014, 192.0, 0.0, 0.0, 0.0, 0.0, 0.0, 0.0, 0.0, 0.0, 0.0, 1.772162577385362E9, 0.0, 2026-02-26 19:22:57.385
48.0, -9504.051149374383, 18867.64393659162, 18924.97616111948, 4974.291321550765, 20185.6145483988, 2171.1590494107068, 10145.881491408527, 20103.516591014457, 0.02, -0.024, 1.014, 192.0, 0.0, 0.0, 0.0, 0.0, 0.0, 0.0, 0.0, 0.0, 0.0, 1.7721625773893828E9, 0.0, 2026-02-26 19:22:57.389
49.0, -9507.02393138694, 18873.500093638908, 18929.535916988363, 4974.783059928783, 20190.28606298996, 2172.1648779111956, 10145.523863497241, 20107.964588161063, 0.022, -0.026000000000000002, 1.014, 192.0, 0.0, 176.0, 255.0, 48.0, 31.0, 176.0, 0.0, 0.0, 0.0, 1.7721625773934538E9, 0.0, 2026-02-26 19:22:57.393
50.0, -9512.611867500767, 18877.054021007305, 18933.4698240125, 4973.039623861268, 20193.884693847263, 2170.063813932397, 10145.210939074866, 20111.429108551634, 0.022, -0.026000000000000002, 1.014, 192.0, 0.0, 0.0, 0.0, 0.0, 0.0, 0.0, 0.0, 0.0, 0.0, 1.7721625773973846E9, 0.0, 2026-02-26 19:22:57.397
51.0, -9506.196916842095, 18881.859646065193, 18939.102463615236, 4971.7432226828605, 20199.405574727723, 2168.2980261204275, 10145.792084430705, 20116.70412024309, 0.022, -0.026000000000000002, 1.014, 192.0, 0.0, 0.0, 0.0, 0.0, 0.0, 0.0, 0.0, 0.0, 0.0, 1.772162577401696E9, 0.0, 2026-02-26 19:22:57.401
52.0, -9517.752768725488, 18885.16770424458, 18943.12577761719, 4974.581894228684, 20203.160667796215, 2171.4943255775365, 10145.568566986152, 20120.436861567123, 0.022, -0.026000000000000002, 1.014, 192.0, 0.0, 0.0, 0.0, 0.0, 0.0, 0.0, 0.0, 0.0, 0.0, 1.7721625774064438E9, 0.0, 2026-02-26 19:22:57.406
53.0, -9520.747902482499, 18889.436887435542, 18945.919745674106, 4980.41569953152, 20207.072223075895, 2177.6634070472014, 10145.546215241697, 20123.476698813047, 0.022, -0.026000000000000002, 1.014, 192.0, 0.0, 0.0, 0.0, 0.0, 0.0, 0.0, 0.0, 0.0, 0.0, 1.772162577410506E9, 0.0, 2026-02-26 19:22:57.410
54.0, -9526.201728129594, 18894.17545726007, 18951.08299864328, 4980.482754764886, 20211.587275455866, 2177.9763314695756, 10145.702677452884, 20128.17056514866, 0.022, -0.026000000000000002, 1.014, 192.0, 0.0, 0.0, 0.0, 0.0, 0.0, 0.0, 0.0, 0.0, 0.0, 1.7721625774135168E9, 0.0, 2026-02-26 19:22:57.413
55.0, -9525.330010095837, 18901.55153293032, 18958.637888269175, 4975.811240173726, 20218.24809530355, 2171.963712211098, 10145.76973268625, 20134.518460573967, 0.022, -0.026000000000000002, 1.014, 192.0, 0.0, 0.0, 0.0, 0.0, 0.0, 0.0, 0.0, 0.0, 0.0, 1.7721625774174893E9, 0.0, 2026-02-26 19:22:57.417
56.0, -9529.93446945363, 18907.184172533056, 18964.762266249927, 4977.532324496785, 20224.126604095294, 2172.768375011489, 10145.568566986152, 20140.061693198884, 0.022, -0.026000000000000002, 1.014, 192.0, 0.0, 0.0, 0.0, 0.0, 0.0, 0.0, 0.0, 0.0, 0.0, 1.7721625774214978E9, 0.0, 2026-02-26 19:22:57.421
57.0, -9541.64678354821, 18915.275504025878, 18971.780714008895, 4979.4322227754865, 20231.457976276633, 2175.9423227241427, 10145.635622219519, 20146.588402579833, 0.022, -0.026000000000000002, 1.014, 192.0, 0.0, 0.0, 0.0, 0.0, 0.0, 0.0, 0.0, 0.0, 0.0, 1.7721625774256015E9, 0.0, 2026-02-26 19:22:57.425
58.0, -9550.878054008253, 18922.003379106925, 18978.218016412022, 4984.148440855556, 20238.230554846592, 2181.776128026978, 10145.188587330413, 20152.51161486049, 0.022, -0.026000000000000002, 1.014, 192.0, 0.0, 0.0, 0.0, 0.0, 0.0, 0.0, 0.0, 0.0, 0.0, 1.7721625774295244E9, 0.0, 2026-02-26 19:22:57.429
59.0, -9552.867359264776, 18929.64767571064, 18985.325871148812, 4978.716966952917, 20244.712560738633, 2174.891790734743, 10145.076828608135, 20158.367771907782, 0.018000000000000002, -0.022, 1.014, 192.0, 0.0, 144.0, 255.0, 80.0, 31.0, 176.0, 0.0, 0.0, 0.0, 1.7721625774336677E9, 0.0, 2026-02-26 19:22:57.433
60.0, -9550.587481330334, 18936.33084730278, 18993.23838868599, 4975.833591918182, 20252.40156083126, 2172.0084157000083, 10144.62979371903, 20165.341516177836, 0.018000000000000002, -0.022, 1.014, 192.0, 0.0, 0.0, 0.0, 0.0, 0.0, 0.0, 0.0, 0.0, 0.0, 1.7721625774387777E9, 0.0, 2026-02-26 19:22:57.438
61.0, -9555.41545813268, 18942.052893883338, 18998.1334207217, 4976.973530885402, 20257.34129635588, 2173.282465133961, 10144.741552441306, 20169.834216813353, 0.018000000000000002, -0.022, 1.014, 192.0, 0.0, 0.0, 0.0, 0.0, 0.0, 0.0, 0.0, 0.0, 0.0, 1.7721625774416344E9, 0.0, 2026-02-26 19:22:57.441
62.0, -9572.89452229673, 18948.55725151983, 19003.408432413155, 4979.141650097567, 20263.219805147626, 2175.584694812858, 10144.92036639695, 20175.33274594936, 0.018000000000000002, -0.022, 1.014, 192.0, 0.0, 0.0, 0.0, 0.0, 0.0, 0.0, 0.0, 0.0, 0.0, 1.7721625774456797E9, 0.0, 2026-02-26 19:22:57.445
63.0, -9578.594217132833, 18957.363838835223, 19012.080909261815, 4983.053205377246, 20272.49577909658, 2181.7537762825223, 10145.367401286054, 20183.871112331286, 0.018000000000000002, -0.022, 1.014, 192.0, 0.0, 0.0, 0.0, 0.0, 0.0, 0.0, 0.0, 0.0, 0.0, 1.772162577449617E9, 0.0, 2026-02-26 19:22:57.449
64.0, -9586.014996291995, 18964.09171391627, 19019.166412254144, 4985.646007734062, 20280.20713093366, 2185.799442028933, 10145.590918730608, 20190.621339156787, 0.018000000000000002, -0.022, 1.014, 192.0, 0.0, 0.0, 0.0, 0.0, 0.0, 0.0, 0.0, 0.0, 0.0, 1.7721625774536853E9, 0.0, 2026-02-26 19:22:57.453
65.0, -9599.09076679835, 18972.764190764927, 19026.76600536895, 4985.221324589411, 20288.320814170937, 2185.1959449286396, 10145.479160008332, 20197.393917726746, 0.018000000000000002, -0.022, 1.014, 192.0, 0.0, 0.0, 0.0, 0.0, 0.0, 0.0, 0.0, 0.0, 0.0, 1.7721625774576817E9, 0.0, 2026-02-26 19:22:57.457
66.0, -9603.069377311394, 18979.67087980162, 19034.700874650585, 4986.115394367623, 20296.34509043039, 2185.799442028933, 10146.172064086446, 20204.613531185812, 0.018000000000000002, -0.022, 1.014, 192.0, 0.0, 0.0, 0.0, 0.0, 0.0, 0.0, 0.0, 0.0, 0.0, 1.7721625774617093E9, 0.0, 2026-02-26 19:22:57.461
67.0, -9611.339522759858, 18986.08583046029, 19041.76402589846, 4984.5954757446625, 20303.296482955993, 2182.960770483109, 10140.561776228164, 20212.079013833885, 0.018000000000000002, -0.022, 1.014, 192.0, 0.0, 0.0, 0.0, 0.0, 0.0, 0.0, 0.0, 0.0, 0.0, 1.7721625774670076E9, 0.0, 2026-02-26 19:22:57.467
68.0, -9637.111084116827, 18991.114972962736, 19045.027380588937, 4983.500240266352, 20306.02339577954, 2181.6643693047013, 10102.13912750949, 20221.33263603838, 0.018000000000000002, -0.022, 1.014, 192.0, 0.0, 0.0, 0.0, 0.0, 0.0, 0.0, 0.0, 0.0, 0.0, 1.7721625774697025E9, 0.0, 2026-02-26 19:22:57.469
69.0, -9630.271450313503, 18987.449286872066, 19043.10513056578, 4985.958932156436, 20303.3411864449, 2185.285351906461, 10086.358795924043, 20221.489098249567, 0.018000000000000002, -0.02, 1.01, 192.0, 0.0, 144.0, 255.0, 96.0, 31.0, 144.0, 0.0, 0.0, 0.0, 1.7721625774727228E9, 0.0, 2026-02-26 19:22:57.472
70.0, -9636.708752716631, 18983.828304270304, 19038.61242993026, 4988.149403113056, 20298.513209642555, 2187.4311193741705, 10086.112926735035, 20216.81758365841, 0.018000000000000002, -0.02, 1.01, 192.0, 0.0, 0.0, 0.0, 0.0, 0.0, 0.0, 0.0, 0.0, 0.0, 1.7721625774777563E9, 0.0, 2026-02-26 19:22:57.477
71.0, -9627.119854345305, 18980.162618179635, 19035.661999662163, 4986.94240891247, 20295.36161367436, 2186.604104829324, 10086.537609879686, 20213.66598769021, 0.018000000000000002, -0.02, 1.01, 192.0, 0.0, 0.0, 0.0, 0.0, 0.0, 0.0, 0.0, 0.0, 0.0, 1.772162577481789E9, 0.0, 2026-02-26 19:22:57.481
72.0, -9629.265621813014, 18981.03433621339, 19034.72322639504, 4984.349606555654, 20294.668709596244, 2183.7207297945893, 10086.358795924043, 20212.637807445266, 0.018000000000000002, -0.02, 1.01, 192.0, 0.0, 0.0, 0.0, 0.0, 0.0, 0.0, 0.0, 0.0, 0.0, 1.7721625774857934E9, 0.0, 2026-02-26 19:22:57.485
73.0, -9617.307438529426, 18974.08294368779, 19029.224697259033, 4986.8306501901925, 20289.617215349343, 2185.4641658621035, 10086.04587150167, 20207.340444009358, 0.018000000000000002, -0.02, 1.01, 192.0, 0.0, 0.0, 0.0, 0.0, 0.0, 0.0, 0.0, 0.0, 0.0, 1.772162577489846E9, 0.0, 2026-02-26 19:22:57.489
74.0, -9618.559136218923, 18971.46778958652, 19024.329665223322, 4986.070690878712, 20284.766886802543, 2183.407805372215, 10086.157630223946, 20201.886618362263, 0.018000000000000002, -0.02, 1.01, 192.0, 0.0, 0.0, 0.0, 0.0, 0.0, 0.0, 0.0, 0.0, 0.0, 1.772162577493811E9, 0.0, 2026-02-26 19:22:57.493
75.0, -9615.072264083894, 18964.538748805375, 19018.27234247593, 4985.198972844955, 20278.329584399413, 2182.9831222275643, 10085.978816268303, 20195.315205492403, 0.018000000000000002, -0.02, 1.01, 192.0, 0.0, 0.0, 0.0, 0.0, 0.0, 0.0, 0.0, 0.0, 0.0, 1.772162577496864E9, 0.0, 2026-02-26 19:22:57.496
76.0, -9608.702016914132, 18960.068399914315, 19012.304426706367, 4987.7694234573155, 20272.71929654113, 2185.95590424012, 10085.978816268303, 20189.07906878937, 0.018000000000000002, -0.02, 1.01, 192.0, 0.0, 0.0, 0.0, 0.0, 0.0, 0.0, 0.0, 0.0, 0.0, 1.7721625775009253E9, 0.0, 2026-02-26 19:22:57.500
77.0, -9612.010075093518, 18955.866271956715, 19008.795202826885, 4986.093042623168, 20268.718334283632, 2183.6313228167683, 10085.911761034939, 20185.122810020785, 0.018000000000000002, -0.02, 1.01, 192.0, 0.0, 0.0, 0.0, 0.0, 0.0, 0.0, 0.0, 0.0, 0.0, 1.772162577504897E9, 0.0, 2026-02-26 19:22:57.504
78.0, -9608.322037258391, 18952.80408296634, 19004.19074346909, 4979.65574022004, 20263.823302247918, 2175.539991323947, 10085.80000231266, 20179.62428088478, 0.018000000000000002, -0.02, 1.01, 192.0, 0.0, 0.0, 0.0, 0.0, 0.0, 0.0, 0.0, 0.0, 0.0, 1.7721625775098917E9, 0.0, 2026-02-26 19:22:57.509
79.0, -9612.501813471534, 18945.673876485096, 18996.926426521117, 4978.426394274998, 20256.62604053331, 2175.4058808572154, 10085.732947079296, 20171.75646683651, 0.018000000000000002, -0.018000000000000002, 1.008, 192.0, 0.0, 144.0, 255.0, 112.0, 31.0, 128.0, 0.0, 0.0, 0.0, 1.7721625775139055E9, 0.0, 2026-02-26 19:22:57.513
80.0, -9592.854630095318, 18937.2696205699, 18988.432763628098, 4981.622693732106, 20248.33354334039, 2180.47972684857, 10085.867057546027, 20162.99458301003, 0.018000000000000002, -0.018000000000000002, 1.008, 192.0, 0.0, 0.0, 0.0, 0.0, 0.0, 0.0, 0.0, 0.0, 0.0, 1.7721625775179408E9, 0.0, 2026-02-26 19:22:57.517
81.0, -9591.290007983447, 18927.07722509828, 18979.46971410152, 4985.869525178615, 20239.638714747278, 2185.5982763288353, 10085.844705801572, 20153.204518938604, 0.018000000000000002, -0.018000000000000002, 1.008, 192.0, 0.0, 0.0, 0.0, 0.0, 0.0, 0.0, 0.0, 0.0, 0.0, 1.7721625775209444E9, 0.0, 2026-02-26 19:22:57.520
82.0, -9575.710842098099, 18921.93632387356, 18973.501798331952, 4984.3049030667435, 20234.006075144538, 2183.8995437502317, 10092.863153560538, 20146.70016130211, 0.018000000000000002, -0.018000000000000002, 1.008, 192.0, 0.0, 0.0, 0.0, 0.0, 0.0, 0.0, 0.0, 0.0, 0.0, 1.772162577524963E9, 0.0, 2026-02-26 19:22:57.524
83.0, -9569.072373994872, 18920.03642559486, 18973.121818676213, 4980.192182086967, 20233.603743744345, 2180.8150030153993, 10131.174043556935, 20147.437768869135, 0.018000000000000002, -0.018000000000000002, 1.008, 192.0, 0.0, 0.0, 0.0, 0.0, 0.0, 0.0, 0.0, 0.0, 0.0, 1.772162577528989E9, 0.0, 2026-02-26 19:22:57.528
84.0, -9555.527216854956, 18920.88579188416, 18975.93813847758, 4976.571199485207, 20236.084787378884, 2177.7081105361117, 10144.093351852101, 20150.32114390387, 0.018000000000000002, -0.018000000000000002, 1.008, 192.0, 0.0, 0.0, 0.0, 0.0, 0.0, 0.0, 0.0, 0.0, 0.0, 1.772162577532993E9, 0.0, 2026-02-26 19:22:57.532
85.0, -9563.305623925404, 18923.679759941075, 18979.492065845974, 4974.246618061855, 20239.86223219183, 2174.8023837569217, 10144.473331507843, 20153.651553827713, 0.018000000000000002, -0.018000000000000002, 1.008, 192.0, 0.0, 0.0, 0.0, 0.0, 0.0, 0.0, 0.0, 0.0, 0.0, 1.772162577538109E9, 0.0, 2026-02-26 19:22:57.538
86.0, -9573.207446719105, 18932.307533300824, 18986.398754882666, 4971.922036638503, 20246.81362471743, 2171.8519534888214, 10144.741552441306, 20160.17826320866, 0.018000000000000002, -0.018000000000000002, 1.008, 192.0, 0.0, 0.0, 0.0, 0.0, 0.0, 0.0, 0.0, 0.0, 0.0, 1.7721625775420475E9, 0.0, 2026-02-26 19:22:57.542
87.0, -9569.698222839621, 18933.447472268042, 18989.215074684034, 4976.235923318377, 20249.786406729985, 2177.3728343692824, 10144.428628018932, 20162.905176032207, 0.018000000000000002, -0.018000000000000002, 1.008, 192.0, 0.0, 0.0, 0.0, 0.0, 0.0, 0.0, 0.0, 0.0, 0.0, 1.7721625775460591E9, 0.0, 2026-02-26 19:22:57.546
88.0, -9568.580635616856, 18938.588373492763, 18993.79718229737, 4981.153307098545, 20255.10612191035, 2184.0113024725083, 10144.026296618737, 20167.621394112277, 0.018000000000000002, -0.018000000000000002, 1.008, 192.0, 0.0, 0.0, 0.0, 0.0, 0.0, 0.0, 0.0, 0.0, 0.0, 1.7721625775490766E9, 0.0, 2026-02-26 19:22:57.549
89.0, -9569.139429228238, 18943.349295061744, 18999.47452538902, 4977.800545430248, 20260.761113257544, 2179.2727326479835, 10144.495683252297, 20172.628184870267, 0.016, -0.016, 1.014, 192.0, 0.0, 128.0, 255.0, 128.0, 31.0, 176.0, 0.0, 0.0, 0.0, 1.7721625775531397E9, 0.0, 2026-02-26 19:22:57.553
90.0, -9580.449411922624, 18951.172405621102, 19005.978883025513, 4974.693652950961, 20267.220767405124, 2175.7858605129554, 10143.780427429727, 20178.17141749518, 0.016, -0.016, 1.014, 192.0, 0.0, 0.0, 0.0, 0.0, 0.0, 0.0, 0.0, 0.0, 0.0, 1.7721625775571415E9, 0.0, 2026-02-26 19:22:57.557
91.0, -9580.114135755794, 18953.60874576673, 19010.113955749744, 4977.331158796687, 20271.467598851636, 2179.3621396258045, 10144.071000107646, 20182.105324519318, 0.016, -0.016, 1.014, 192.0, 0.0, 0.0, 0.0, 0.0, 0.0, 0.0, 0.0, 0.0, 0.0, 1.7721625775611427E9, 0.0, 2026-02-26 19:22:57.561
92.0, -9585.210333491605, 18960.157806892134, 19015.165449996646, 4979.320464053209, 20276.63085182081, 2182.2678664049945, 10144.62979371903, 20186.84389434384, 0.016, -0.016, 1.014, 192.0, 0.0, 0.0, 0.0, 0.0, 0.0, 0.0, 0.0, 0.0, 0.0, 1.772162577565127E9, 0.0, 2026-02-26 19:22:57.565
93.0, -9574.839124064341, 18961.074228414804, 19018.42880468712, 4981.399176287553, 20279.827151277917, 2184.4583373616147, 10144.518034996752, 20190.08489728986, 0.016, -0.016, 1.014, 192.0, 0.0, 0.0, 0.0, 0.0, 0.0, 0.0, 0.0, 0.0, 0.0, 1.7721625775702343E9, 0.0, 2026-02-26 19:22:57.570
94.0, -9598.576676675877, 18971.46778958652, 19026.184860013112, 4982.047376876757, 20287.694965326187, 2184.391282128249, 10143.735723940817, 20197.438621215657, 0.016, -0.016, 1.014, 192.0, 0.0, 0.0, 0.0, 0.0, 0.0, 0.0, 0.0, 0.0, 0.0, 1.772162577574224E9, 0.0, 2026-02-26 19:22:57.574
95.0, -9599.515449943001, 18976.094600688768, 19032.219831016046, 4974.626597717595, 20293.171142717736, 2175.182363412662, 10143.467503007354, 20202.42306022919, 0.016, -0.016, 1.014, 192.0, 0.0, 0.0, 0.0, 0.0, 0.0, 0.0, 0.0, 0.0, 0.0, 1.772162577577206E9, 0.0, 2026-02-26 19:22:57.577
96.0, -9631.05376136944, 18986.46581011603, 19038.143043296703, 4975.945350640458, 20299.787259076507, 2176.7469855245336, 10131.397561001488, 20210.00030159954, 0.016, -0.016, 1.014, 192.0, 0.0, 0.0, 0.0, 0.0, 0.0, 0.0, 0.0, 0.0, 0.0, 1.7721625775812316E9, 0.0, 2026-02-26 19:22:57.581
97.0, -9618.760301919021, 18983.269510658924, 19038.18774678561, 4976.302978551743, 20298.937892787206, 2176.635226802257, 10092.57258088262, 20216.214086558117, 0.016, -0.016, 1.014, 192.0, 0.0, 0.0, 0.0, 0.0, 0.0, 0.0, 0.0, 0.0, 0.0, 1.772162577585308E9, 0.0, 2026-02-26 19:22:57.585
98.0, -9619.47555774159, 18982.353089136253, 19035.639647917706, 4977.420565774509, 20296.702718341676, 2177.8198692583883, 10085.352967423554, 20214.783574912977, 0.016, -0.016, 1.014, 192.0, 0.0, 0.0, 0.0, 0.0, 0.0, 0.0, 0.0, 0.0, 0.0, 1.7721625775892773E9, 0.0, 2026-02-26 19:22:57.589
99.0, -9611.85361288233, 18976.60869081124, 19032.353941482776, 4977.979359385891, 20293.171142717736, 2178.602180314324, 10085.174153467913, 20211.319054522402, 0.012, -0.02, 1.014, 192.0, 0.0, 96.0, 255.0, 96.0, 31.0, 176.0, 0.0, 0.0, 0.0, 1.7721625775933204E9, 0.0, 2026-02-26 19:22:57.593
100.0, -9603.337598244858, 18977.055725700346, 19031.81749961585, 4976.146516340556, 20292.657052595267, 2176.3670058687935, 10084.950636023359, 20210.581446955377, 0.012, -0.02, 1.014, 192.0, 0.0, 0.0, 0.0, 0.0, 0.0, 0.0, 0.0, 0.0, 0.0, 1.772162577597309E9, 0.0, 2026-02-26 19:22:57.597
101.0, -9598.442566209145, 18973.814722754327, 19030.521098437443, 4976.101812851645, 20290.667747338743, 2175.316473879394, 10085.017691256726, 20209.128583565784, 0.012, -0.02, 1.014, 192.0, 0.0, 0.0, 0.0, 0.0, 0.0, 0.0, 0.0, 0.0, 0.0, 1.7721625776024625E9, 0.0, 2026-02-26 19:22:57.602
102.0, -9613.57469720539, 18972.13834192018, 19028.107110036268, 4974.760708184327, 20287.851427537375, 2173.3942238562377, 10084.99533951227, 20206.51342946451, 0.012, -0.02, 1.014, 192.0, 0.0, 0.0, 0.0, 0.0, 0.0, 0.0, 0.0, 0.0, 0.0, 1.7721625776054406E9, 0.0, 2026-02-26 19:22:57.605
103.0, -9625.599935722345, 18970.059629685835, 19025.313141979354, 4975.6771297069945, 20285.01275599155, 2175.249418646028, 10084.61535985653, 20203.540647451955, 0.012, -0.02, 1.014, 192.0, 0.0, 0.0, 0.0, 0.0, 0.0, 0.0, 0.0, 0.0, 0.0, 1.77216257760939E9, 0.0, 2026-02-26 19:22:57.609
104.0, -9617.106272829327, 18965.164597650124, 19020.507516921465, 4974.671301206506, 20280.028316978016, 2173.8189070008884, 10084.369490667521, 20198.176228782682, 0.012, -0.02, 1.014, 192.0, 0.0, 0.0, 0.0, 0.0, 0.0, 0.0, 0.0, 0.0, 0.0, 1.7721625776134384E9, 0.0, 2026-02-26 19:22:57.613
105.0, -9606.645656424243, 18957.877928957692, 19014.606656385262, 4977.800545430248, 20273.993345975083, 2176.3893576132486, 10084.168324967424, 20191.783629868463, 0.012, -0.02, 1.014, 192.0, 0.0, 0.0, 0.0, 0.0, 0.0, 0.0, 0.0, 0.0, 0.0, 1.7721625776174824E9, 0.0, 2026-02-26 19:22:57.617
106.0, -9596.699130141633, 18953.586394022273, 19010.91861855014, 4982.159135599034, 20270.43941860669, 2179.0268634589747, 10084.391842411977, 20187.7156123776, 0.012, -0.02, 1.014, 192.0, 0.0, 0.0, 0.0, 0.0, 0.0, 0.0, 0.0, 0.0, 0.0, 1.7721625776214514E9, 0.0, 2026-02-26 19:22:57.621
107.0, -9605.036330823461, 18952.424103310597, 19008.594037126786, 4985.064862378224, 20268.00307846106, 2178.0433867029415, 10084.347138923065, 20185.14516176524, 0.012, -0.02, 1.014, 192.0, 0.0, 0.0, 0.0, 0.0, 0.0, 0.0, 0.0, 0.0, 0.0, 1.7721625776254551E9, 0.0, 2026-02-26 19:22:57.625
108.0, -9595.983874319063, 18946.74676021895, 19002.89434229068, 4989.579914758196, 20262.34808711387, 2180.14445068174, 10084.302435434156, 20179.020783784483, 0.012, -0.02, 1.014, 192.0, 0.0, 0.0, 0.0, 0.0, 0.0, 0.0, 0.0, 0.0, 0.0, 1.7721625776304853E9, 0.0, 2026-02-26 19:22:57.630
109.0, -9588.496039926535, 18941.56115550532, 18998.222827699523, 4990.742205469872, 20257.564813800433, 2180.502078593025, 10084.391842411977, 20174.10340000432, 0.014, -0.02, 1.016, 192.0, 0.0, 112.0, 255.0, 96.0, 31.0, 192.0, 0.0, 0.0, 0.0, 1.7721625776334815E9, 0.0, 2026-02-26 19:22:57.633
110.0, -9573.69918509712, 18938.387207792664, 18995.89824627617, 4991.077481636701, 20255.128473654804, 2181.0385204599525, 10084.257731945245, 20171.42119066968, 0.014, -0.02, 1.016, 192.0, 0.0, 0.0, 0.0, 0.0, 0.0, 0.0, 0.0, 0.0, 0.0, 1.7721625776365168E9, 0.0, 2026-02-26 19:22:57.636
111.0, -9578.32599619937, 18934.520356001896, 18990.690289818085, 4989.445804291464, 20250.278145108005, 2179.205677414617, 10084.391842411977, 20165.453274900112, 0.014, -0.02, 1.016, 192.0, 0.0, 0.0, 0.0, 0.0, 0.0, 0.0, 0.0, 0.0, 0.0, 1.7721625776415515E9, 0.0, 2026-02-26 19:22:57.641
112.0, -9571.888693796242, 18930.541745488852, 18986.778734538406, 4989.6469699915615, 20246.657162506242, 2179.3844913702596, 10084.123621478513, 20161.094684731328, 0.014, -0.02, 1.016, 192.0, 0.0, 0.0, 0.0, 0.0, 0.0, 0.0, 0.0, 0.0, 0.0, 1.7721625776455426E9, 0.0, 2026-02-26 19:22:57.645
113.0, -9571.061679251396, 18928.105405343224, 18983.716545548028, 4990.250467091855, 20243.7290839826, 2179.0045117145196, 10084.19067671188, 20157.85368178531, 0.014, -0.02, 1.016, 192.0, 0.0, 0.0, 0.0, 0.0, 0.0, 0.0, 0.0, 0.0, 0.0, 1.7721625776495495E9, 0.0, 2026-02-26 19:22:57.649
114.0, -9558.768219800975, 18923.478594240976, 18979.939100735082, 4989.781080458293, 20240.130453125294, 2178.311607636405, 10084.168324967424, 20153.651553827713, 0.014, -0.02, 1.016, 192.0, 0.0, 0.0, 0.0, 0.0, 0.0, 0.0, 0.0, 0.0, 0.0, 1.7721625776535797E9, 0.0, 2026-02-26 19:22:57.653
115.0, -9565.049059992918, 18920.28229478387, 18976.027545455403, 4988.596438002162, 20236.509470523535, 2176.411709357704, 10084.078917989602, 20149.4047223812, 0.014, -0.02, 1.016, 192.0, 0.0, 0.0, 0.0, 0.0, 0.0, 0.0, 0.0, 0.0, 0.0, 1.7721625776576266E9, 0.0, 2026-02-26 19:22:57.657
116.0, -9560.176379701661, 18916.035463337357, 18971.780714008895, 4992.6421037485725, 20232.5755634994, 2180.9714652265866, 10084.011862756237, 20144.88967000123, 0.014, -0.02, 1.016, 192.0, 0.0, 0.0, 0.0, 0.0, 0.0, 0.0, 0.0, 0.0, 0.0, 1.7721625776616445E9, 0.0, 2026-02-26 19:22:57.661
117.0, -9560.779876801953, 18914.247323780935, 18969.120856418715, 4998.207688117944, 20230.072168120405, 2187.6546368187232, 10084.078917989602, 20141.581611821846, 0.014, -0.02, 1.016, 192.0, 0.0, 0.0, 0.0, 0.0, 0.0, 0.0, 0.0, 0.0, 0.0, 1.7721625776646342E9, 0.0, 2026-02-26 19:22:57.664
118.0, -9543.233757404538, 18911.051024323824, 18967.198606395556, 4995.525478783307, 20227.5240692525, 2184.6595030617123, 10091.097365748568, 20139.56995482087, 0.014, -0.02, 1.016, 192.0, 0.0, 0.0, 0.0, 0.0, 0.0, 0.0, 0.0, 0.0, 0.0, 1.7721625776687095E9, 0.0, 2026-02-26 19:22:57.668
119.0, -9536.729399768043, 18909.464050467497, 18965.969260450514, 4988.551734513251, 20225.780633184986, 2176.7469855245336, 10129.207090044867, 20139.726417032056, 0.016, -0.018000000000000002, 1.014, 192.0, 0.0, 128.0, 255.0, 112.0, 31.0, 176.0, 0.0, 0.0, 0.0, 1.7721625776737344E9, 0.0, 2026-02-26 19:22:57.673
120.0, -9528.012219430473, 18913.532067958364, 18971.1772169086, 4985.914228667525, 20230.787423942977, 2174.243590145539, 10142.506377995775, 20145.09083570133, 0.016, -0.018000000000000002, 1.014, 192.0, 0.0, 0.0, 0.0, 0.0, 0.0, 0.0, 0.0, 0.0, 0.0, 1.7721625776777012E9, 0.0, 2026-02-26 19:22:57.677
121.0, -9541.624431803755, 18919.723501172484, 18977.56981582282, 4988.931714168992, 20237.224726346103, 2177.57400006938, 10142.573433229141, 20151.237565426538, 0.016, -0.018000000000000002, 1.014, 192.0, 0.0, 0.0, 0.0, 0.0, 0.0, 0.0, 0.0, 0.0, 0.0, 1.7721625776818347E9, 0.0, 2026-02-26 19:22:57.681
122.0, -9538.875167235752, 18926.496079742443, 18984.655318815152, 4989.334045569187, 20244.62315376081, 2177.797517513933, 10142.640488462506, 20157.764274807487, 0.016, -0.018000000000000002, 1.014, 192.0, 0.0, 0.0, 0.0, 0.0, 0.0, 0.0, 0.0, 0.0, 0.0, 1.7721625776857734E9, 0.0, 2026-02-26 19:22:57.685
123.0, -9553.001469731507, 18932.46399551201, 18990.51147586244, 4990.004597902846, 20250.52401429701, 2178.088090191852, 10142.282860551222, 20162.972231265572, 0.016, -0.018000000000000002, 1.014, 192.0, 0.0, 0.0, 0.0, 0.0, 0.0, 0.0, 0.0, 0.0, 0.0, 1.7721625776898024E9, 0.0, 2026-02-26 19:22:57.689
124.0, -9554.521388354467, 18937.716655459008, 18996.47939163201, 4990.853964192148, 20256.71544751113, 2179.2950843924386, 10141.902880895483, 20168.5601673794, 0.016, -0.018000000000000002, 1.014, 192.0, 0.0, 0.0, 0.0, 0.0, 0.0, 0.0, 0.0, 0.0, 0.0, 1.7721625776927884E9, 0.0, 2026-02-26 19:22:57.692
125.0, -9562.903292525209, 18944.17630960659, 19001.329720178812, 4988.551734513251, 20262.169273158226, 2176.47876459107, 10141.612308217564, 20172.60583312581, 0.016, -0.018000000000000002, 1.014, 192.0, 0.0, 0.0, 0.0, 0.0, 0.0, 0.0, 0.0, 0.0, 0.0, 1.7721625776968105E9, 0.0, 2026-02-26 19:22:57.696
126.0, -9556.063658721883, 18949.451321298042, 19006.76119408145, 4986.6518362345505, 20267.421933105223, 2175.182363412662, 10141.522901239741, 20177.32205120588, 0.016, -0.018000000000000002, 1.014, 192.0, 0.0, 0.0, 0.0, 0.0, 0.0, 0.0, 0.0, 0.0, 0.0, 1.7721625777008152E9, 0.0, 2026-02-26 19:22:57.700
127.0, -9557.740039556033, 18954.011077166924, 19012.080909261815, 4986.808298445738, 20272.406372118756, 2175.8082122574106, 10141.38879077301, 20182.485304175058, 0.016, -0.018000000000000002, 1.014, 192.0, 0.0, 0.0, 0.0, 0.0, 0.0, 0.0, 0.0, 0.0, 0.0, 1.7721625777058575E9, 0.0, 2026-02-26 19:22:57.705
128.0, -9567.261882693992, 18960.068399914315, 19018.786432598405, 4990.317522325221, 20279.11189545535, 2179.540953581447, 10141.545252984197, 20188.788496111454, 0.016, -0.018000000000000002, 1.014, 192.0, 0.0, 0.0, 0.0, 0.0, 0.0, 0.0, 0.0, 0.0, 0.0, 1.7721625777098672E9, 0.0, 2026-02-26 19:22:57.709
129.0, -9578.281292710459, 18968.38324885169, 19026.3413222243, 4990.853964192148, 20287.069116481438, 2179.4962500925362, 10141.120569839546, 20195.762240381508, 0.016, -0.018000000000000002, 1.014, 192.0, 0.0, 0.0, 0.0, 0.0, 0.0, 0.0, 0.0, 0.0, 0.0, 1.772162577713931E9, 0.0, 2026-02-26 19:22:57.713
130.0, -9579.42123167768, 18974.418219854622, 19031.638685660208, 4987.7694234573155, 20292.768811317543, 2176.4340611021594, 10140.450017505887, 20200.94784509514, 0.016, -0.018000000000000002, 1.02, 192.0, 0.0, 128.0, 255.0, 112.0, 31.0, 224.0, 0.0, 0.0, 0.0, 1.772162577716894E9, 0.0, 2026-02-26 19:22:57.716
131.0, -9601.214182521604, 18982.28603390289, 19038.72418865254, 4986.070690878712, 20299.720203843142, 2174.2659418899943, 10112.912668336949, 20212.34723476735, 0.016, -0.018000000000000002, 1.02, 192.0, 0.0, 0.0, 0.0, 0.0, 0.0, 0.0, 0.0, 0.0, 0.0, 1.7721625777209234E9, 0.0, 2026-02-26 19:22:57.720
132.0, -9613.820566394397, 18980.989632724482, 19037.62895317423, 4989.4681560359195, 20298.24498870909, 2177.9986832140307, 10084.816525556627, 20215.699996435644, 0.016, -0.018000000000000002, 1.02, 192.0, 0.0, 0.0, 0.0, 0.0, 0.0, 0.0, 0.0, 0.0, 0.0, 1.7721625777249453E9, 0.0, 2026-02-26 19:22:57.724
133.0, -9611.116005315305, 18977.525112333908, 19034.47735720603, 4990.943371169969, 20294.668709596244, 2179.205677414617, 10083.341310422578, 20212.637807445266, 0.016, -0.018000000000000002, 1.02, 192.0, 0.0, 0.0, 0.0, 0.0, 0.0, 0.0, 0.0, 0.0, 0.0, 1.7721625777289813E9, 0.0, 2026-02-26 19:22:57.728
134.0, -9604.298723256436, 18975.89343498867, 19032.510403693963, 4988.775251957804, 20292.657052595267, 2176.9705029690867, 10083.296606933667, 20210.581446955377, 0.016, -0.018000000000000002, 1.02, 192.0, 0.0, 0.0, 0.0, 0.0, 0.0, 0.0, 0.0, 0.0, 0.0, 1.7721625777340033E9, 0.0, 2026-02-26 19:22:57.734
135.0, -9605.796290134942, 18977.2792431449, 19034.3432467393, 4989.624618247106, 20294.668709596244, 2179.317436136894, 10083.296606933667, 20212.48134523408, 0.016, -0.018000000000000002, 1.02, 192.0, 0.0, 0.0, 0.0, 0.0, 0.0, 0.0, 0.0, 0.0, 0.0, 1.7721625777381523E9, 0.0, 2026-02-26 19:22:57.738
136.0, -9596.408557463714, 18973.546501820863, 19031.348112982287, 4993.245600848866, 20291.897093283784, 2183.184287927662, 10083.296606933667, 20209.48621147707, 0.016, -0.018000000000000002, 1.02, 192.0, 0.0, 0.0, 0.0, 0.0, 0.0, 0.0, 0.0, 0.0, 0.0, 1.7721625777420132E9, 0.0, 2026-02-26 19:22:57.742
137.0, -9600.543630187945, 18972.18304540909, 19028.82236585884, 4990.496336280863, 20289.21488394915, 2178.9821599700645, 10083.05073774466, 20206.491077720057, 0.016, -0.018000000000000002, 1.02, 192.0, 0.0, 0.0, 0.0, 0.0, 0.0, 0.0, 0.0, 0.0, 0.0, 1.7721625777450652E9, 0.0, 2026-02-26 19:22:57.745
138.0, -9590.597103905333, 18970.908995975136, 19027.77183386944, 4986.964760656924, 20288.097296726384, 2174.7576802680114, 10083.028386000204, 20205.239380030558, 0.016, -0.018000000000000002, 1.02, 192.0, 0.0, 0.0, 0.0, 0.0, 0.0, 0.0, 0.0, 0.0, 0.0, 1.772162577749056E9, 0.0, 2026-02-26 19:22:57.749
139.0, -9580.695281111632, 18969.79140875237, 19027.548316424887, 4986.6518362345505, 20287.694965326187, 2175.1153081792963, 10082.871923789016, 20205.038214330463, 0.016, -0.018000000000000002, 1.02, 192.0, 0.0, 0.0, 0.0, 0.0, 0.0, 0.0, 0.0, 0.0, 0.0, 1.772162577753066E9, 0.0, 2026-02-26 19:22:57.753
140.0, -9585.255036980514, 18970.014926196924, 19027.615371658252, 4989.870487436115, 20287.650261837276, 2178.3563111253156, 10082.84957204456, 20205.261731775016, 0.012, -0.016, 1.022, 192.0, 0.0, 96.0, 255.0, 128.0, 31.0, 240.0, 0.0, 0.0, 0.0, 1.7721625777572374E9, 0.0, 2026-02-26 19:22:57.757
141.0, -9587.154935259216, 18969.94787096356, 19028.241220503, 4988.194106601966, 20287.851427537375, 2176.8140407578994, 10082.961330766837, 20205.77582189749, 0.012, -0.016, 1.022, 192.0, 0.0, 0.0, 0.0, 0.0, 0.0, 0.0, 0.0, 0.0, 0.0, 1.7721625777611184E9, 0.0, 2026-02-26 19:22:57.761
142.0, -9590.440641694146, 18970.75253376395, 19028.62120015874, 4989.825783947204, 20288.41022114876, 2179.093918692341, 10082.737813322285, 20206.044042830952, 0.012, -0.016, 1.022, 192.0, 0.0, 0.0, 0.0, 0.0, 0.0, 0.0, 0.0, 0.0, 0.0, 1.772162577766126E9, 0.0, 2026-02-26 19:22:57.766
143.0, -9590.775917860976, 18970.216091897022, 19027.99535131399, 4989.423452547008, 20288.052593237473, 2177.9092762362097, 10082.626054600007, 20205.261731775016, 0.012, -0.016, 1.022, 192.0, 0.0, 0.0, 0.0, 0.0, 0.0, 0.0, 0.0, 0.0, 0.0, 1.772162577770224E9, 0.0, 2026-02-26 19:22:57.770
144.0, -9599.828374365376, 18969.545539563365, 19026.47543269103, 4989.669321736017, 20286.376212403324, 2179.205677414617, 10082.603702855553, 20203.27242651849, 0.012, -0.016, 1.022, 192.0, 0.0, 0.0, 0.0, 0.0, 0.0, 0.0, 0.0, 0.0, 0.0, 1.7721625777731686E9, 0.0, 2026-02-26 19:22:57.773
145.0, -9592.631112650766, 18964.717562761016, 19021.647455888684, 4988.417624046519, 20280.92238675623, 2177.3951861137375, 10082.626054600007, 20198.019766571495, 0.012, -0.016, 1.022, 192.0, 0.0, 0.0, 0.0, 0.0, 0.0, 0.0, 0.0, 0.0, 0.0, 1.7721625777771845E9, 0.0, 2026-02-26 19:22:57.777
146.0, -9596.654426652722, 18962.57179529331, 19019.412281443154, 4988.484679279885, 20278.4860466106, 2177.0152064579975, 10082.51429587773, 20195.67283340369, 0.012, -0.016, 1.022, 192.0, 0.0, 0.0, 0.0, 0.0, 0.0, 0.0, 0.0, 0.0, 0.0, 1.772162577781214E9, 0.0, 2026-02-26 19:22:57.781
147.0, -9584.226856735571, 18959.28608885838, 19016.595961641786, 4988.216458346422, 20276.00500297606, 2176.6575785467126, 10082.827220300105, 20192.94592058014, 0.012, -0.016, 1.022, 192.0, 0.0, 0.0, 0.0, 0.0, 0.0, 0.0, 0.0, 0.0, 0.0, 1.7721625777852318E9, 0.0, 2026-02-26 19:22:57.785
148.0, -9585.657368380711, 18957.90028070215, 19015.00898778546, 4987.098871123657, 20274.35097388637, 2175.4729360905812, 10082.558999366642, 20191.224836257083, 0.012, -0.016, 1.022, 192.0, 0.0, 0.0, 0.0, 0.0, 0.0, 0.0, 0.0, 0.0, 0.0, 1.7721625777893128E9, 0.0, 2026-02-26 19:22:57.789
149.0, -9588.27252248198, 18958.436722569077, 19015.05369127437, 4989.535211269285, 20274.798008775477, 2179.0492152034303, 10082.558999366642, 20191.515408935, 0.012, -0.016, 1.022, 192.0, 0.0, 0.0, 0.0, 0.0, 0.0, 0.0, 0.0, 0.0, 0.0, 1.7721625777933776E9, 0.0, 2026-02-26 19:22:57.793
150.0, -9587.13258351476, 18958.83905396927, 19015.47837441902, 4992.977379915403, 20275.356802386857, 2182.826660016377, 10082.290778433178, 20192.14125777975, 0.014, -0.02, 1.022, 192.0, 0.0, 112.0, 255.0, 96.0, 31.0, 240.0, 0.0, 0.0, 0.0, 1.7721625777982907E9, 0.0, 2026-02-26 19:22:57.798
151.0, -9576.98489153205, 18957.386190579677, 19014.293731962887, 4994.966685171925, 20274.172159930728, 2185.508869351014, 10082.33548192209, 20191.113077534807, 0.014, -0.02, 1.022, 192.0, 0.0, 0.0, 0.0, 0.0, 0.0, 0.0, 0.0, 0.0, 0.0, 1.7721625778013327E9, 0.0, 2026-02-26 19:22:57.801
152.0, -9574.74971708652, 18954.99455392296, 19012.080909261815, 4994.474946793908, 20271.758171529553, 2185.419462373193, 10082.179019710902, 20188.564978666902, 0.014, -0.02, 1.022, 192.0, 0.0, 0.0, 0.0, 0.0, 0.0, 0.0, 0.0, 0.0, 0.0, 1.7721625778053043E9, 0.0, 2026-02-26 19:22:57.805
153.0, -9577.677795610165, 18952.021771910404, 19008.549333637875, 4993.670283993517, 20268.42776160571, 2183.318398394394, 10082.290778433178, 20184.720478620588, 0.014, -0.02, 1.022, 192.0, 0.0, 0.0, 0.0, 0.0, 0.0, 0.0, 0.0, 0.0, 0.0, 1.7721625778093257E9, 0.0, 2026-02-26 19:22:57.809
154.0, -9580.18119098916, 18949.496024786953, 19005.66595860314, 4989.155231613545, 20265.499683082067, 2178.4904215920474, 10082.447240644366, 20181.32301346338, 0.014, -0.02, 1.022, 192.0, 0.0, 0.0, 0.0, 0.0, 0.0, 0.0, 0.0, 0.0, 0.0, 1.7721625778133535E9, 0.0, 2026-02-26 19:22:57.813
155.0, -9569.206484461605, 18946.56794626331, 19003.69900509107, 4989.490507780374, 20263.353915614356, 2179.317436136894, 10082.491944133275, 20179.132542506763, 0.014, -0.02, 1.022, 192.0, 0.0, 0.0, 0.0, 0.0, 0.0, 0.0, 0.0, 0.0, 0.0, 1.7721625778174057E9, 0.0, 2026-02-26 19:22:57.817
156.0, -9576.761374087499, 18946.813815452315, 19002.827287057316, 4990.451632791953, 20262.72806676961, 2180.792651270944, 10082.00020575526, 20178.126714006274, 0.014, -0.02, 1.022, 192.0, 0.0, 0.0, 0.0, 0.0, 0.0, 0.0, 0.0, 0.0, 0.0, 1.772162577821478E9, 0.0, 2026-02-26 19:22:57.821
157.0, -9570.122905984272, 18942.27641132789, 18998.222827699523, 4989.244638591366, 20258.369476600823, 2179.9879884705533, 10082.022557499715, 20172.941109292642, 0.014, -0.02, 1.022, 192.0, 0.0, 0.0, 0.0, 0.0, 0.0, 0.0, 0.0, 0.0, 0.0, 1.7721625778264787E9, 0.0, 2026-02-26 19:22:57.826
158.0, -9575.241455464537, 18940.242402582455, 18995.317100920332, 4988.9987694023575, 20255.44139807718, 2179.608008814813, 10082.223723199812, 20170.080086002363, 0.014, -0.02, 1.022, 192.0, 0.0, 0.0, 0.0, 0.0, 0.0, 0.0, 0.0, 0.0, 0.0, 1.7721625778294828E9, 0.0, 2026-02-26 19:22:57.829
159.0, -9566.345461171326, 18936.26379206941, 18991.76317355194, 4987.36709205712, 20251.641601519776, 2177.596351813835, 10081.910798777437, 20166.03442025595, 0.014, -0.02, 1.022, 192.0, 0.0, 0.0, 0.0, 0.0, 0.0, 0.0, 0.0, 0.0, 0.0, 1.772162577832458E9, 0.0, 2026-02-26 19:22:57.832
160.0, -9565.809019304397, 18933.626286223687, 18989.0809642173, 4987.501202523852, 20248.981743929595, 2176.8140407578994, 10081.888447032983, 20163.218100454582, 0.018000000000000002, -0.022, 1.02, 192.0, 0.0, 144.0, 255.0, 80.0, 31.0, 224.0, 0.0, 0.0, 0.0, 1.7721625778375103E9, 0.0, 2026-02-26 19:22:57.837
161.0, -9567.84302804983, 18930.899373400138, 18986.21994092702, 4985.958932156436, 20246.43364506169, 2175.2047151571173, 10081.575522610608, 20160.26767018648, 0.018000000000000002, -0.022, 1.02, 192.0, 0.0, 0.0, 0.0, 0.0, 0.0, 0.0, 0.0, 0.0, 0.0, 1.7721625778414788E9, 0.0, 2026-02-26 19:22:57.841
162.0, -9575.286158953448, 18930.161765833112, 18984.632967070695, 4986.920057168014, 20245.00313341655, 2177.4622413471034, 10081.463763888332, 20158.568937607877, 0.018000000000000002, -0.022, 1.02, 192.0, 0.0, 0.0, 0.0, 0.0, 0.0, 0.0, 0.0, 0.0, 0.0, 1.7721625778455215E9, 0.0, 2026-02-26 19:22:57.845
163.0, -9562.299795424915, 18926.585486720265, 18982.621310069717, 4985.1766211005, 20242.52208978201, 2175.1153081792963, 10081.553170866153, 20155.886728273243, 0.018000000000000002, -0.022, 1.02, 192.0, 0.0, 0.0, 0.0, 0.0, 0.0, 0.0, 0.0, 0.0, 0.0, 1.7721625778495347E9, 0.0, 2026-02-26 19:22:57.849
164.0, -9561.584539602345, 18921.243419795446, 18976.13930417768, 4987.523554268308, 20236.263601334525, 2177.864572747299, 10081.597874355064, 20148.443597369624, 0.018000000000000002, -0.022, 1.02, 192.0, 0.0, 0.0, 0.0, 0.0, 0.0, 0.0, 0.0, 0.0, 0.0, 1.7721625778535585E9, 0.0, 2026-02-26 19:22:57.853
165.0, -9561.495132624523, 18919.70114942803, 18974.08294368779, 4991.792737459271, 20234.833089689386, 2183.184287927662, 10081.664929588429, 20146.431940368646, 0.018000000000000002, -0.022, 1.02, 192.0, 0.0, 0.0, 0.0, 0.0, 0.0, 0.0, 0.0, 0.0, 0.0, 1.772162577857562E9, 0.0, 2026-02-26 19:22:57.857
166.0, -9565.317280926381, 18914.98493134796, 18968.76322850743, 4993.737339226883, 20229.938057653675, 2185.1735931841845, 10081.843743544072, 20140.441672854624, 0.018000000000000002, -0.022, 1.02, 192.0, 0.0, 0.0, 0.0, 0.0, 0.0, 0.0, 0.0, 0.0, 0.0, 1.7721625778615866E9, 0.0, 2026-02-26 19:22:57.861
167.0, -9550.095742952317, 18910.916913857094, 18965.924556961603, 4991.278647336799, 20226.495889007558, 2182.826660016377, 10093.019615771726, 20137.64770479771, 0.018000000000000002, -0.022, 1.02, 192.0, 0.0, 0.0, 0.0, 0.0, 0.0, 0.0, 0.0, 0.0, 0.0, 1.772162577865606E9, 0.0, 2026-02-26 19:22:57.865
168.0, -9521.21728911606, 18909.50875395641, 18967.1762546511, 4988.618789746617, 20227.457014019135, 2179.920933237187, 10132.626906946529, 20140.620486810265, 0.018000000000000002, -0.022, 1.02, 192.0, 0.0, 0.0, 0.0, 0.0, 0.0, 0.0, 0.0, 0.0, 0.0, 1.7721625778696508E9, 0.0, 2026-02-26 19:22:57.869
169.0, -9522.759559483477, 18914.381434247665, 18972.361859364733, 4986.137746112078, 20232.66497047722, 2176.8810959912653, 10140.338258783611, 20145.806091523897, 0.018000000000000002, -0.022, 1.02, 192.0, 0.0, 0.0, 0.0, 0.0, 0.0, 0.0, 0.0, 0.0, 0.0, 1.7721625778726602E9, 0.0, 2026-02-26 19:22:57.872
170.0, -9529.867414220264, 18919.70114942803, 18977.2792431449, 4984.237847833378, 20237.694112979665, 2175.607046557313, 10139.846520405594, 20150.187033437138, 0.016, -0.018000000000000002, 1.014, 192.0, 0.0, 128.0, 255.0, 112.0, 31.0, 176.0, 0.0, 0.0, 0.0, 1.7721625778766828E9, 0.0, 2026-02-26 19:22:57.876
171.0, -9535.343591611814, 18926.65254195363, 18984.36474613723, 4985.020158889313, 20244.95842992764, 2176.9705029690867, 10140.38296227252, 20156.780798051455, 0.016, -0.018000000000000002, 1.014, 192.0, 0.0, 0.0, 0.0, 0.0, 0.0, 0.0, 0.0, 0.0, 0.0, 1.77216257788179E9, 0.0, 2026-02-26 19:22:57.881
172.0, -9537.869338735263, 18932.821623423293, 18991.47260087402, 4984.997807144858, 20251.976877686608, 2177.1046134358185, 10140.070037850146, 20163.083989987852, 0.016, -0.018000000000000002, 1.014, 192.0, 0.0, 0.0, 0.0, 0.0, 0.0, 0.0, 0.0, 0.0, 0.0, 1.7721625778857832E9, 0.0, 2026-02-26 19:22:57.885
173.0, -9549.201673174104, 18939.84007118226, 18997.172295710123, 4984.41666178902, 20258.01184868954, 2176.2328954020613, 10140.047686105692, 20168.291946445937, 0.016, -0.018000000000000002, 1.014, 192.0, 0.0, 0.0, 0.0, 0.0, 0.0, 0.0, 0.0, 0.0, 0.0, 1.7721625778897526E9, 0.0, 2026-02-26 19:22:57.889
174.0, -9558.075315722861, 18945.070379384804, 19002.313196934843, 4985.288379822777, 20263.44332259218, 2177.305779135916, 10140.695886694895, 20173.164626737194, 0.016, -0.018000000000000002, 1.014, 192.0, 0.0, 0.0, 0.0, 0.0, 0.0, 0.0, 0.0, 0.0, 0.0, 1.7721625778937368E9, 0.0, 2026-02-26 19:22:57.893
175.0, -9560.198731446115, 18948.154920119636, 19005.978883025513, 4984.059033877735, 20266.840787749385, 2175.6517500462237, 10140.986459372814, 20176.249167472026, 0.016, -0.018000000000000002, 1.014, 192.0, 0.0, 0.0, 0.0, 0.0, 0.0, 0.0, 0.0, 0.0, 0.0, 1.7721625778968513E9, 0.0, 2026-02-26 19:22:57.896
176.0, -9562.32214716937, 18955.08396090078, 19013.489069162497, 4982.337949554676, 20274.21686341964, 2173.7965552564333, 10140.181796572424, 20182.820580341886, 0.016, -0.018000000000000002, 1.014, 192.0, 0.0, 0.0, 0.0, 0.0, 0.0, 0.0, 0.0, 0.0, 0.0, 1.7721625779008095E9, 0.0, 2026-02-26 19:22:57.900
177.0, -9565.250225693015, 18961.051876670346, 19020.239295988, 4983.276722821799, 20281.324718156426, 2174.3329971233607, 10140.159444827968, 20189.257882745016, 0.016, -0.018000000000000002, 1.014, 192.0, 0.0, 0.0, 0.0, 0.0, 0.0, 0.0, 0.0, 0.0, 0.0, 1.7721625779048212E9, 0.0, 2026-02-26 19:22:57.904
178.0, -9578.638920621745, 18966.304536617343, 19025.223735001535, 4984.84134493367, 20286.175046703225, 2177.0599099469077, 10139.935927383414, 20193.929397336175, 0.016, -0.018000000000000002, 1.014, 192.0, 0.0, 0.0, 0.0, 0.0, 0.0, 0.0, 0.0, 0.0, 0.0, 1.7721625779089024E9, 0.0, 2026-02-26 19:22:57.908
179.0, -9591.46882193909, 18973.770019265416, 19031.81749961585, 4983.03085363279, 20292.366479917346, 2174.66827329019, 10126.256659776767, 20202.08778406236, 0.016, -0.018000000000000002, 1.014, 192.0, 0.0, 0.0, 0.0, 0.0, 0.0, 0.0, 0.0, 0.0, 0.0, 1.772162577913938E9, 0.0, 2026-02-26 19:22:57.913
180.0, -9611.451281482136, 18976.474580344508, 19033.53858393891, 4982.8967431660585, 20293.796991562485, 2173.997720956531, 10087.386976168988, 20209.553266710434, 0.018000000000000002, -0.018000000000000002, 1.014, 192.0, 0.0, 144.0, 255.0, 112.0, 31.0, 176.0, 0.0, 0.0, 0.0, 1.7721625779178977E9, 0.0, 2026-02-26 19:22:57.917
181.0, -9613.082958827372, 18973.211225654035, 19029.604676914772, 4979.968664642413, 20289.97484326063, 2170.510848821503, 10080.592045854575, 20206.55813295342, 0.018000000000000002, -0.018000000000000002, 1.014, 192.0, 0.0, 0.0, 0.0, 0.0, 0.0, 0.0, 0.0, 0.0, 0.0, 1.7721625779218953E9, 0.0, 2026-02-26 19:22:57.921
182.0, -9612.792386149453, 18970.28314713039, 19026.3413222243, 4982.002673387847, 20286.77854380352, 2171.2708081329833, 10080.524990621208, 20203.27242651849, 0.018000000000000002, -0.018000000000000002, 1.014, 192.0, 0.0, 0.0, 0.0, 0.0, 0.0, 0.0, 0.0, 0.0, 0.0, 1.772162577924932E9, 0.0, 2026-02-26 19:22:57.924
183.0, -9611.160708804216, 18964.762266249927, 19020.418109943643, 4983.880219922093, 20280.989441989594, 2173.5506860674245, 10080.703804576851, 20197.08099330437, 0.018000000000000002, -0.018000000000000002, 1.014, 192.0, 0.0, 0.0, 0.0, 0.0, 0.0, 0.0, 0.0, 0.0, 0.0, 1.7721625779299672E9, 0.0, 2026-02-26 19:22:57.929
184.0, -9603.069377311394, 18959.666068514118, 19015.3889674412, 4985.958932156436, 20276.362630887346, 2176.255247146517, 10080.882618532494, 20192.253016502025, 0.018000000000000002, -0.018000000000000002, 1.014, 192.0, 0.0, 0.0, 0.0, 0.0, 0.0, 0.0, 0.0, 0.0, 0.0, 1.7721625779340348E9, 0.0, 2026-02-26 19:22:57.934
185.0, -9597.99553132004, 18957.565004535318, 19012.974979040024, 4984.684882722483, 20274.10510469736, 2174.869438990288, 10080.770859810216, 20189.839028100854, 0.018000000000000002, -0.018000000000000002, 1.014, 192.0, 0.0, 0.0, 0.0, 0.0, 0.0, 0.0, 0.0, 0.0, 0.0, 1.772162577937055E9, 0.0, 2026-02-26 19:22:57.937
186.0, -9595.313321985403, 18951.865309699217, 19007.096470248278, 4981.801507687749, 20267.980726716607, 2172.0978226778298, 10080.703804576851, 20183.245263486537, 0.018000000000000002, -0.018000000000000002, 1.014, 192.0, 0.0, 0.0, 0.0, 0.0, 0.0, 0.0, 0.0, 0.0, 0.0, 1.772162577941084E9, 0.0, 2026-02-26 19:22:57.941
187.0, -9595.290970240947, 18945.919745674106, 19001.06149924535, 4981.645045476562, 20261.901052224763, 2172.388395355749, 10080.592045854575, 20176.495036661036, 0.018000000000000002, -0.018000000000000002, 1.014, 192.0, 0.0, 0.0, 0.0, 0.0, 0.0, 0.0, 0.0, 0.0, 0.0, 1.772162577946066E9, 0.0, 2026-02-26 19:22:57.946
188.0, -9585.23268523606, 18940.957658405026, 18996.99348175448, 4984.975455400402, 20257.833034733896, 2176.85874424681, 10080.61439759903, 20172.404667425715, 0.018000000000000002, -0.018000000000000002, 1.014, 192.0, 0.0, 0.0, 0.0, 0.0, 0.0, 0.0, 0.0, 0.0, 0.0, 1.7721625779500504E9, 0.0, 2026-02-26 19:22:57.950
189.0, -9579.42123167768, 18937.98487639247, 18994.512438119942, 4990.205763602944, 20255.553156799455, 2182.446680360637, 10080.837915043583, 20170.19184472464, 0.018000000000000002, -0.018000000000000002, 1.014, 192.0, 0.0, 0.0, 0.0, 0.0, 0.0, 0.0, 0.0, 0.0, 0.0, 1.7721625779531024E9, 0.0, 2026-02-26 19:22:57.953
190.0, -9579.912970055697, 18934.565059490807, 18991.00321424046, 4988.931714168992, 20251.686305008687, 2181.5302588379695, 10080.435583643388, 20165.98971676704, 0.02, -0.018000000000000002, 1.018, 192.0, 0.0, 160.0, 255.0, 112.0, 31.0, 208.0, 0.0, 0.0, 0.0, 1.7721625779571493E9, 0.0, 2026-02-26 19:22:57.957
191.0, -9581.298778211925, 18931.257001311424, 18986.979900238504, 4985.780118200793, 20247.417121817725, 2177.19402041364, 10080.18971445438, 20160.871167286776, 0.02, -0.018000000000000002, 1.018, 192.0, 0.0, 0.0, 0.0, 0.0, 0.0, 0.0, 0.0, 0.0, 0.0, 1.772162577961179E9, 0.0, 2026-02-26 19:22:57.961
192.0, -9574.079164752862, 18928.731254187973, 18984.498856603965, 4984.3049030667435, 20245.316057838925, 2174.578866312369, 10080.167362709924, 20158.121902718773, 0.02, -0.018000000000000002, 1.018, 192.0, 0.0, 0.0, 0.0, 0.0, 0.0, 0.0, 0.0, 0.0, 0.0, 1.7721625779651198E9, 0.0, 2026-02-26 19:22:57.965
193.0, -9562.098629724816, 18921.93632387356, 18977.838036756282, 4984.059033877735, 20238.945810669164, 2173.5506860674245, 10080.100307476558, 20151.014047981986, 0.02, -0.018000000000000002, 1.018, 192.0, 0.0, 0.0, 0.0, 0.0, 0.0, 0.0, 0.0, 0.0, 0.0, 1.772162577969237E9, 0.0, 2026-02-26 19:22:57.969
194.0, -9562.724478569566, 18916.907181371116, 18972.808894253838, 4986.763594956827, 20234.318999566913, 2177.6857587916566, 10080.167362709924, 20145.6049258238, 0.02, -0.018000000000000002, 1.018, 192.0, 0.0, 0.0, 0.0, 0.0, 0.0, 0.0, 0.0, 0.0, 0.0, 1.7721625779742236E9, 0.0, 2026-02-26 19:22:57.974
195.0, -9560.93633901314, 18914.202620292024, 18969.724353519006, 4987.992940901869, 20231.636790232278, 2180.211505915106, 10080.100307476558, 20141.916887988675, 0.02, -0.018000000000000002, 1.018, 192.0, 0.0, 0.0, 0.0, 0.0, 0.0, 0.0, 0.0, 0.0, 0.0, 1.7721625779782228E9, 0.0, 2026-02-26 19:22:57.978
196.0, -9553.627318576255, 18908.36881498919, 18963.66703077162, 4987.612961246128, 20225.735929696075, 2179.809174514911, 10079.966197009826, 20135.054902440894, 0.02, -0.018000000000000002, 1.018, 192.0, 0.0, 0.0, 0.0, 0.0, 0.0, 0.0, 0.0, 0.0, 0.0, 1.772162577981161E9, 0.0, 2026-02-26 19:22:57.981
197.0, -9541.959707970585, 18903.40672772011, 18959.107274902737, 4985.131917611589, 20221.042063360463, 2176.568171568891, 10093.779575083207, 20130.852774483297, 0.02, -0.018000000000000002, 1.018, 192.0, 0.0, 0.0, 0.0, 0.0, 0.0, 0.0, 0.0, 0.0, 0.0, 1.7721625779851792E9, 0.0, 2026-02-26 19:22:57.985
198.0, -9521.709027494077, 18905.21721902099, 18961.99064993747, 4981.868562921115, 20223.880734906284, 2173.57303781188, 10132.448092990888, 20135.7031030301, 0.02, -0.018000000000000002, 1.018, 192.0, 0.0, 0.0, 0.0, 0.0, 0.0, 0.0, 0.0, 0.0, 0.0, 1.772162577989266E9, 0.0, 2026-02-26 19:22:57.989
199.0, -9520.859661204775, 18909.061719067304, 18967.04214418437, 4983.008501888336, 20228.842822175364, 2174.4671075900924, 10139.108912838568, 20140.888707743732, 0.02, -0.018000000000000002, 1.018, 192.0, 0.0, 0.0, 0.0, 0.0, 0.0, 0.0, 0.0, 0.0, 0.0, 1.7721625779933288E9, 0.0, 2026-02-26 19:22:57.993
200.0, -9525.464120562568, 18914.26967552539, 18973.45709484304, 4985.735414711883, 20235.39188330077, 2177.9763314695756, 10138.81834016065, 20147.057789213395, 0.02, -0.018000000000000002, 1.018, 192.0, 0.0, 0.0, 0.0, 0.0, 0.0, 0.0, 0.0, 0.0, 0.0, 1.77216257799726E9, 0.0, 2026-02-26 19:22:57.997
201.0, -9525.911155451675, 18922.450413996034, 18981.861350758238, 4980.818030931715, 20243.416159560224, 2171.896656977732, 10138.326601782634, 20154.36680965028, 0.018000000000000002, -0.02, 1.012, 192.0, 0.0, 144.0, 255.0, 96.0, 31.0, 160.0, 0.0, 0.0, 0.0, 1.7721625780013895E9, 0.0, 2026-02-26 19:22:58.001
202.0, -9528.280440363937, 18926.294914042344, 18985.303519404355, 4979.4322227754865, 20246.835976461887, 2169.8402964878437, 10138.795988416194, 20157.4066468962, 0.018000000000000002, -0.02, 1.012, 192.0, 0.0, 0.0, 0.0, 0.0, 0.0, 0.0, 0.0, 0.0, 0.0, 1.772162578006351E9, 0.0, 2026-02-26 19:22:58.006
203.0, -9543.993716716019, 18933.715693201506, 18992.120801463225, 4979.007539630836, 20253.6309067763, 2170.1085174213076, 10138.885395394016, 20163.508673132503, 0.018000000000000002, -0.02, 1.012, 192.0, 0.0, 0.0, 0.0, 0.0, 0.0, 0.0, 0.0, 0.0, 0.0, 1.772162578009362E9, 0.0, 2026-02-26 19:22:58.009
204.0, -9548.240548162526, 18940.60003049374, 18999.876856789215, 4978.6722634640055, 20260.96227895764, 2169.3262063653715, 10138.997154116292, 20170.23654821355, 0.018000000000000002, -0.02, 1.012, 192.0, 0.0, 0.0, 0.0, 0.0, 0.0, 0.0, 0.0, 0.0, 0.0, 1.7721625780123637E9, 0.0, 2026-02-26 19:22:58.012
205.0, -9550.31926039687, 18946.769111963407, 19005.889476047694, 4979.946312897959, 20267.354877871858, 2170.712014521601, 10138.416008760454, 20175.7127256051, 0.018000000000000002, -0.02, 1.012, 192.0, 0.0, 0.0, 0.0, 0.0, 0.0, 0.0, 0.0, 0.0, 0.0, 1.7721625780183568E9, 0.0, 2026-02-26 19:22:58.018
206.0, -9558.499998867512, 18954.65927775613, 19013.354958695767, 4978.694615208461, 20275.222691920128, 2169.706186021112, 10138.460712249365, 20182.485304175058, 0.018000000000000002, -0.02, 1.012, 192.0, 0.0, 0.0, 0.0, 0.0, 0.0, 0.0, 0.0, 0.0, 0.0, 1.7721625780214553E9, 0.0, 2026-02-26 19:22:58.021
207.0, -9570.79345831793, 18961.096580159257, 19018.942894809592, 4978.918132653014, 20281.21295943415, 2170.153220910218, 10138.594822716097, 20187.60385365532, 0.018000000000000002, -0.02, 1.012, 192.0, 0.0, 0.0, 0.0, 0.0, 0.0, 0.0, 0.0, 0.0, 0.0, 1.7721625780254765E9, 0.0, 2026-02-26 19:22:58.025
208.0, -9578.974196788573, 18967.980917451492, 19026.497784435487, 4981.7791559432935, 20288.365517659848, 2173.327168622872, 10138.594822716097, 20194.443487458648, 0.018000000000000002, -0.02, 1.012, 192.0, 0.0, 0.0, 0.0, 0.0, 0.0, 0.0, 0.0, 0.0, 0.0, 1.7721625780294683E9, 0.0, 2026-02-26 19:22:58.029
209.0, -9585.143278258238, 18973.054763442848, 19031.549278682385, 4980.236885575877, 20293.10408748437, 2171.5166773219917, 10132.805720902172, 20200.098478805838, 0.018000000000000002, -0.02, 1.012, 192.0, 0.0, 0.0, 0.0, 0.0, 0.0, 0.0, 0.0, 0.0, 0.0, 1.772162578033494E9, 0.0, 2026-02-26 19:22:58.033
210.0, -9605.729234901577, 18978.329775134298, 19035.77375838444, 4978.471097763908, 20296.97093927514, 2168.85681973181, 10094.919514050427, 20210.38028125528, 0.018000000000000002, -0.02, 1.012, 192.0, 0.0, 0.0, 0.0, 0.0, 0.0, 0.0, 0.0, 0.0, 0.0, 1.7721625780375876E9, 0.0, 2026-02-26 19:22:58.037
211.0, -9621.397807764746, 18976.273414644413, 19032.376293227233, 4978.091118108167, 20293.752288073574, 2168.5885987983465, 10079.452106887355, 20209.28504577697, 0.022, -0.014, 1.008, 192.0, 0.0, 176.0, 255.0, 144.0, 31.0, 128.0, 0.0, 0.0, 0.0, 1.7721625780405483E9, 0.0, 2026-02-26 19:22:58.040
212.0, -9615.161671061716, 18971.266623886422, 19027.078929791325, 4978.292283808266, 20288.432572893213, 2169.0356336874524, 10079.362699909532, 20203.697109663142, 0.022, -0.014, 1.008, 192.0, 0.0, 0.0, 0.0, 0.0, 0.0, 0.0, 0.0, 0.0, 0.0, 1.7721625780455313E9, 0.0, 2026-02-26 19:22:58.045
213.0, -9606.980932591074, 18967.198606395556, 19023.1897262561, 4981.823859432204, 20284.67747982472, 2172.969540711587, 10079.586217354086, 20199.651443916733, 0.022, -0.014, 1.008, 192.0, 0.0, 0.0, 0.0, 0.0, 0.0, 0.0, 0.0, 0.0, 0.0, 1.7721625780496294E9, 0.0, 2026-02-26 19:22:58.049
214.0, -9601.035368565961, 18962.66120227113, 19019.27817097642, 4980.862734420626, 20280.76592454504, 2171.4272703441707, 10079.429755142899, 20195.29285374795, 0.022, -0.014, 1.008, 192.0, 0.0, 0.0, 0.0, 0.0, 0.0, 0.0, 0.0, 0.0, 0.0, 1.7721625780536523E9, 0.0, 2026-02-26 19:22:58.053
215.0, -9606.131566301772, 18960.001344680946, 19016.394795941687, 4979.074594864202, 20277.703735554664, 2169.147392409729, 10079.317996420623, 20192.18596126866, 0.022, -0.014, 1.008, 192.0, 0.0, 0.0, 0.0, 0.0, 0.0, 0.0, 0.0, 0.0, 0.0, 1.77216257805762E9, 0.0, 2026-02-26 19:22:58.057
216.0, -9603.158784289215, 18955.03925741187, 19010.91861855014, 4980.639216976073, 20272.24990990757, 2170.443793588137, 10078.826258042605, 20186.32980422137, 0.022, -0.014, 1.008, 192.0, 0.0, 0.0, 0.0, 0.0, 0.0, 0.0, 0.0, 0.0, 0.0, 1.772162578060598E9, 0.0, 2026-02-26 19:22:58.060
217.0, -9599.113118542806, 18950.211280609525, 19006.04593825888, 4984.3049030667435, 20267.556043571956, 2175.0482529459305, 10078.647444086962, 20181.255958230016, 0.022, -0.014, 1.008, 192.0, 0.0, 0.0, 0.0, 0.0, 0.0, 0.0, 0.0, 0.0, 0.0, 1.7721625780646348E9, 0.0, 2026-02-26 19:22:58.064
218.0, -9588.250170737527, 18944.51158577342, 19000.502705633964, 4986.405967045542, 20262.169273158226, 2177.350482624827, 10078.938016764881, 20175.55626339391, 0.022, -0.014, 1.008, 192.0, 0.0, 0.0, 0.0, 0.0, 0.0, 0.0, 0.0, 0.0, 0.0, 1.7721625780686548E9, 0.0, 2026-02-26 19:22:58.068
219.0, -9591.357063216814, 18940.51062351592, 18996.09941197627, 4986.808298445738, 20257.52011031152, 2177.641055302746, 10079.183885953891, 20170.79534182493, 0.022, -0.014, 1.008, 192.0, 0.0, 0.0, 0.0, 0.0, 0.0, 0.0, 0.0, 0.0, 0.0, 1.7721625780726707E9, 0.0, 2026-02-26 19:22:58.072
220.0, -9589.144240515738, 18937.917821159106, 18993.23838868599, 4986.696539723461, 20254.346162598868, 2177.95397972512, 10078.692147575874, 20167.487283645547, 0.022, -0.014, 1.008, 192.0, 0.0, 0.0, 0.0, 0.0, 0.0, 0.0, 0.0, 0.0, 0.0, 1.7721625780767198E9, 0.0, 2026-02-26 19:22:58.076
221.0, -9585.858534080808, 18931.905201900627, 18986.756382793952, 4987.523554268308, 20247.90886019574, 2178.7586425255113, 10078.558037109142, 20160.222966697573, 0.018000000000000002, -0.018000000000000002, 1.008, 192.0, 0.0, 144.0, 255.0, 112.0, 31.0, 128.0, 0.0, 0.0, 0.0, 1.7721625780817237E9, 0.0, 2026-02-26 19:22:58.081
222.0, -9574.347385686326, 18927.166632076103, 18982.397792625165, 4989.065824635723, 20243.460863049135, 2179.831526259366, 10078.915665020426, 20155.506748617503, 0.018000000000000002, -0.018000000000000002, 1.008, 192.0, 0.0, 0.0, 0.0, 0.0, 0.0, 0.0, 0.0, 0.0, 0.0, 1.7721625780857725E9, 0.0, 2026-02-26 19:22:58.085
223.0, -9578.840086321841, 18923.098614585237, 18978.195664667568, 4988.372920557609, 20239.19167985817, 2178.579828569869, 10078.647444086962, 20150.79053053743, 0.018000000000000002, -0.018000000000000002, 1.008, 192.0, 0.0, 0.0, 0.0, 0.0, 0.0, 0.0, 0.0, 0.0, 0.0, 1.7721625780887277E9, 0.0, 2026-02-26 19:22:58.088
224.0, -9578.482458410557, 18918.60591394972, 18972.85359774275, 4984.528420511297, 20233.849612933354, 2174.1988866566285, 10078.535685364686, 20144.867318256776, 0.018000000000000002, -0.018000000000000002, 1.008, 192.0, 0.0, 0.0, 0.0, 0.0, 0.0, 0.0, 0.0, 0.0, 0.0, 1.7721625780927496E9, 0.0, 2026-02-26 19:22:58.092
225.0, -9577.968368288084, 18913.01797783589, 18967.220958140013, 4983.6567024775395, 20228.28402856398, 2173.3942238562377, 10078.558037109142, 20138.675885042656, 0.018000000000000002, -0.018000000000000002, 1.008, 192.0, 0.0, 0.0, 0.0, 0.0, 0.0, 0.0, 0.0, 0.0, 0.0, 1.7721625780967045E9, 0.0, 2026-02-26 19:22:58.096
226.0, -9553.001469731507, 18904.904294598615, 18960.51543480342, 4988.350568813154, 20221.734967438577, 2179.0045117145196, 10094.360720439045, 20131.94800996161, 0.018000000000000002, -0.018000000000000002, 1.008, 192.0, 0.0, 0.0, 0.0, 0.0, 0.0, 0.0, 0.0, 0.0, 0.0, 1.7721625781007848E9, 0.0, 2026-02-26 19:22:58.100
227.0, -9528.571013041856, 18902.02091956388, 18959.777827236394, 4984.5954757446625, 20220.90795289373, 2175.0706046903856, 10131.62107844604, 20132.752672762, 0.018000000000000002, -0.018000000000000002, 1.008, 192.0, 0.0, 0.0, 0.0, 0.0, 0.0, 0.0, 0.0, 0.0, 0.0, 1.7721625781068077E9, 0.0, 2026-02-26 19:22:58.106
228.0, -9532.214347388071, 18905.284274254354, 18963.24234762697, 4978.0240628748015, 20223.85838316183, 2168.3203778648826, 10136.896090137494, 20135.770158263465, 0.018000000000000002, -0.018000000000000002, 1.008, 192.0, 0.0, 0.0, 0.0, 0.0, 0.0, 0.0, 0.0, 0.0, 0.0, 1.7721625781098127E9, 0.0, 2026-02-26 19:22:58.109
229.0, -9544.060771949384, 18910.64869292363, 18967.779751751394, 4979.991016386869, 20228.5746012419, 2170.6002557993243, 10136.873738393038, 20139.972286221062, 0.018000000000000002, -0.018000000000000002, 1.008, 192.0, 0.0, 0.0, 0.0, 0.0, 0.0, 0.0, 0.0, 0.0, 0.0, 1.7721625781138225E9, 0.0, 2026-02-26 19:22:58.113
230.0, -9549.492245852023, 18916.057815081815, 18973.4794465875, 4980.3709960426095, 20234.184889100183, 2171.315511621894, 10137.209014559867, 20145.13553919024, 0.018000000000000002, -0.018000000000000002, 1.008, 192.0, 0.0, 0.0, 0.0, 0.0, 0.0, 0.0, 0.0, 0.0, 0.0, 1.7721625781168463E9, 0.0, 2026-02-26 19:22:58.116
231.0, -9552.263862164482, 18916.773070904383, 18973.501798331952, 4979.991016386869, 20234.073130377907, 2171.114345921796, 10136.784331415216, 20145.023780467964, 0.016, -0.018000000000000002, 1.012, 192.0, 0.0, 128.0, 255.0, 112.0, 31.0, 160.0, 0.0, 0.0, 0.0, 1.7721625781208572E9, 0.0, 2026-02-26 19:22:58.120
232.0, -9556.801266288909, 18919.499983727932, 18976.206359411044, 4983.232019332889, 20236.95650541264, 2174.5565145679134, 10136.58316571512, 20147.54952759141, 0.016, -0.018000000000000002, 1.012, 192.0, 0.0, 0.0, 0.0, 0.0, 0.0, 0.0, 0.0, 0.0, 0.0, 1.7721625781248982E9, 0.0, 2026-02-26 19:22:58.124
233.0, -9574.123868241772, 18924.015036107903, 18979.380307123698, 4983.74610945536, 20240.152804869747, 2174.6906250346456, 10137.00784885977, 20150.544661348424, 0.016, -0.018000000000000002, 1.012, 192.0, 0.0, 0.0, 0.0, 0.0, 0.0, 0.0, 0.0, 0.0, 0.0, 1.7721625781295784E9, 0.0, 2026-02-26 19:22:58.129
234.0, -9567.016013504985, 18924.75264367493, 18981.056687957847, 4980.505106509341, 20241.270392092516, 2171.0696424328858, 10136.605517459575, 20151.75165554901, 0.016, -0.018000000000000002, 1.012, 192.0, 0.0, 0.0, 0.0, 0.0, 0.0, 0.0, 0.0, 0.0, 0.0, 1.7721625781328633E9, 0.0, 2026-02-26 19:22:58.132
235.0, -9572.313376940892, 18929.60297222173, 18986.04112697138, 4979.678091964494, 20246.076017150404, 2169.8179447433886, 10136.76197967076, 20156.154949206706, 0.016, -0.018000000000000002, 1.012, 192.0, 0.0, 0.0, 0.0, 0.0, 0.0, 0.0, 0.0, 0.0, 0.0, 1.772162578136954E9, 0.0, 2026-02-26 19:22:58.136
236.0, -9579.018900277484, 18932.016960622903, 18988.209246183545, 4981.399176287553, 20248.378246829303, 2170.8237732438774, 10136.851386648583, 20158.300716674414, 0.016, -0.018000000000000002, 1.012, 192.0, 0.0, 0.0, 0.0, 0.0, 0.0, 0.0, 0.0, 0.0, 0.0, 1.7721625781419647E9, 0.0, 2026-02-26 19:22:58.141
237.0, -9587.981949804062, 18931.5699257338, 18987.069307216323, 4979.6110367311285, 20247.19360437317, 2168.8121162428997, 10137.030200604226, 20157.27253642947, 0.016, -0.018000000000000002, 1.012, 192.0, 0.0, 0.0, 0.0, 0.0, 0.0, 0.0, 0.0, 0.0, 0.0, 1.7721625781452713E9, 0.0, 2026-02-26 19:22:58.145
238.0, -9580.784688089454, 18932.709864701017, 18988.589225839285, 4981.935618154481, 20248.780578229496, 2172.5895610558464, 10136.851386648583, 20158.591289352335, 0.016, -0.018000000000000002, 1.012, 192.0, 0.0, 0.0, 0.0, 0.0, 0.0, 0.0, 0.0, 0.0, 0.0, 1.772162578148944E9, 0.0, 2026-02-26 19:22:58.148
239.0, -9582.572827645878, 18935.347370546744, 18991.249083429466, 4986.584781001185, 20251.5298427975, 2178.7139390366006, 10137.186662815413, 20161.11703647578, 0.016, -0.018000000000000002, 1.012, 192.0, 0.0, 0.0, 0.0, 0.0, 0.0, 0.0, 0.0, 0.0, 0.0, 1.772162578153064E9, 0.0, 2026-02-26 19:22:58.153
240.0, -9585.903237569719, 18935.526184502385, 18991.3831938962, 4990.675150236506, 20251.75336024205, 2183.117232694296, 10137.320773282145, 20161.22879519806, 0.016, -0.018000000000000002, 1.012, 192.0, 0.0, 0.0, 0.0, 0.0, 0.0, 0.0, 0.0, 0.0, 0.0, 1.7721625781570632E9, 0.0, 2026-02-26 19:22:58.157
241.0, -9590.6641591387, 18939.258925826423, 18994.132458464203, 4988.5293827687965, 20254.6814387657, 2179.093918692341, 10137.588994215608, 20163.441617899134, 0.02, -0.02, 1.012, 192.0, 0.0, 160.0, 255.0, 96.0, 31.0, 160.0, 0.0, 0.0, 0.0, 1.772162578161076E9, 0.0, 2026-02-26 19:22:58.161
242.0, -9585.925589314174, 18938.99070489296, 18994.691252075583, 4983.3661297996205, 20254.77084574352, 2172.991892456042, 10137.924270382437, 20163.508673132503, 0.02, -0.02, 1.012, 192.0, 0.0, 0.0, 0.0, 0.0, 0.0, 0.0, 0.0, 0.0, 0.0, 1.7721625781651163E9, 0.0, 2026-02-26 19:22:58.165
243.0, -9582.438717179146, 18941.4717485275, 18997.820496299326, 4981.6673972210165, 20257.67657252271, 2171.248456388528, 10137.209014559867, 20166.146178978226, 0.02, -0.02, 1.012, 192.0, 0.0, 0.0, 0.0, 0.0, 0.0, 0.0, 0.0, 0.0, 0.0, 1.772162578170147E9, 0.0, 2026-02-26 19:22:58.170
244.0, -9577.431926421157, 18942.343466561255, 18998.71456607754, 4981.7791559432935, 20258.704752767655, 2170.8461249883326, 10136.76197967076, 20167.152007478715, 0.02, -0.02, 1.012, 192.0, 0.0, 0.0, 0.0, 0.0, 0.0, 0.0, 0.0, 0.0, 0.0, 1.772162578173162E9, 0.0, 2026-02-26 19:22:58.173
245.0, -9586.976121303573, 18945.718579974007, 19000.592112611786, 4982.6061704881395, 20260.761113257544, 2171.6507877887234, 10136.76197967076, 20169.18601622415, 0.02, -0.02, 1.012, 192.0, 0.0, 0.0, 0.0, 0.0, 0.0, 0.0, 0.0, 0.0, 0.0, 1.7721625781761525E9, 0.0, 2026-02-26 19:22:58.176
246.0, -9589.412461449201, 18947.707885230528, 19003.386080668697, 4981.600341987651, 20263.555081314455, 2170.6896627771453, 10136.493758737297, 20171.644708114232, 0.02, -0.02, 1.012, 192.0, 0.0, 0.0, 0.0, 0.0, 0.0, 0.0, 0.0, 0.0, 0.0, 1.7721625781811073E9, 0.0, 2026-02-26 19:22:58.181
247.0, -9581.164667745194, 18947.283202085877, 19003.542542879884, 4981.51093500983, 20263.66684003673, 2170.3320348658604, 10136.471406992843, 20171.644708114232, 0.02, -0.02, 1.012, 192.0, 0.0, 0.0, 0.0, 0.0, 0.0, 0.0, 0.0, 0.0, 0.0, 1.7721625781851892E9, 0.0, 2026-02-26 19:22:58.185
248.0, -9588.384281204259, 18948.80312070884, 19005.017758013935, 4982.628522232595, 20265.253813893058, 2171.762546511, 10135.95731687037, 20172.918757548185, 0.02, -0.02, 1.012, 192.0, 0.0, 0.0, 0.0, 0.0, 0.0, 0.0, 0.0, 0.0, 0.0, 1.772162578189234E9, 0.0, 2026-02-26 19:22:58.189
249.0, -9595.358025474314, 18951.865309699217, 19008.19170572659, 4984.662530978028, 20268.695982539175, 2174.1765349121733, 10135.86790989255, 20175.89153956074, 0.02, -0.02, 1.012, 192.0, 0.0, 0.0, 0.0, 0.0, 0.0, 0.0, 0.0, 0.0, 0.0, 1.7721625781951752E9, 0.0, 2026-02-26 19:22:58.195
250.0, -9596.430909208168, 18954.256946355934, 19010.85156331677, 4984.059033877735, 20271.221729662626, 2173.57303781188, 10135.934965125914, 20178.350231450826, 0.02, -0.02, 1.012, 192.0, 0.0, 0.0, 0.0, 0.0, 0.0, 0.0, 0.0, 0.0, 0.0, 1.7721625781982124E9, 0.0, 2026-02-26 19:22:58.198
251.0, -9591.737042872554, 18955.12866438969, 19012.058557517357, 4981.89091466557, 20272.071095951927, 2171.091994177341, 10136.069075592646, 20179.42311518468, 0.018000000000000002, -0.02, 1.014, 192.0, 0.0, 144.0, 255.0, 96.0, 31.0, 176.0, 0.0, 0.0, 0.0, 1.772162578201233E9, 0.0, 2026-02-26 19:22:58.201
252.0, -9599.493098198545, 18957.766170235416, 19014.20432498507, 4981.063900120724, 20274.328622141915, 2170.421441843682, 10136.002020359281, 20181.56888265239, 0.018000000000000002, -0.02, 1.014, 192.0, 0.0, 0.0, 0.0, 0.0, 0.0, 0.0, 0.0, 0.0, 0.0, 1.7721625782043085E9, 0.0, 2026-02-26 19:22:58.204
253.0, -9600.834202865864, 18959.88958595867, 19016.215981986046, 4982.6061704881395, 20276.3849826318, 2172.2095814001063, 10135.666744192451, 20183.446429186635, 0.018000000000000002, -0.02, 1.014, 192.0, 0.0, 0.0, 0.0, 0.0, 0.0, 0.0, 0.0, 0.0, 0.0, 1.7721625782082694E9, 0.0, 2026-02-26 19:22:58.208
254.0, -9608.657313425221, 18960.76130399243, 19016.68536861961, 4980.8403826761705, 20276.67555530972, 2170.3320348658604, 10135.264412792256, 20183.737001864552, 0.018000000000000002, -0.02, 1.014, 192.0, 0.0, 0.0, 0.0, 0.0, 0.0, 0.0, 0.0, 0.0, 0.0, 1.7721625782133815E9, 0.0, 2026-02-26 19:22:58.213
255.0, -9601.683569155166, 18961.901242959648, 19018.406452942665, 4983.388481544075, 20278.754267544064, 2173.327168622872, 10135.934965125914, 20185.480437932067, 0.018000000000000002, -0.02, 1.014, 192.0, 0.0, 0.0, 0.0, 0.0, 0.0, 0.0, 0.0, 0.0, 0.0, 1.7721625782172952E9, 0.0, 2026-02-26 19:22:58.217
0.0, -9603.359949989313, 18965.052838927848, 19021.20042099958, 4987.277685079299, 20281.72704955662, 2177.57400006938, 10136.38200001502, 20188.22970250007, 0.018000000000000002, -0.02, 1.014, 192.0, 0.0, 0.0, 0.0, 0.0, 0.0, 0.0, 0.0, 0.0, 0.0, 1.7721625782212908E9, 0.0, 2026-02-26 19:22:58.221
1.0, -9604.43283372317, 18966.08101917279, 19021.602752399773, 4988.261161835332, 20282.174084445727, 2178.3786628697712, 10136.829034904127, 20188.676737389178, 0.018000000000000002, -0.02, 1.014, 192.0, 0.0, 0.0, 0.0, 0.0, 0.0, 0.0, 0.0, 0.0, 0.0, 1.7721625782253144E9, 0.0, 2026-02-26 19:22:58.225
2.0, -9618.648543196743, 18966.66216452863, 19020.731034366017, 4981.577990243196, 20280.72122105613, 2171.091994177341, 10136.67257269294, 20187.201522255127, 0.018000000000000002, -0.02, 1.014, 192.0, 0.0, 0.0, 0.0, 0.0, 0.0, 0.0, 0.0, 0.0, 0.0, 1.7721625782293432E9, 0.0, 2026-02-26 19:22:58.229
3.0, -9616.189851306659, 18966.50570231744, 19021.42393844413, 4980.482754764886, 20281.21295943415, 2170.086165676852, 10135.912613381459, 20187.581501910867, 0.018000000000000002, -0.02, 1.014, 192.0, 0.0, 0.0, 0.0, 0.0, 0.0, 0.0, 0.0, 0.0, 0.0, 1.7721625782323525E9, 0.0, 2026-02-26 19:22:58.232
4.0, -9618.872060641297, 18967.690344773575, 19022.966208811547, 4980.303940809244, 20282.732878057108, 2168.9462267096314, 10135.711447681362, 20188.989661811553, 0.018000000000000002, -0.02, 1.014, 192.0, 0.0, 0.0, 0.0, 0.0, 0.0, 0.0, 0.0, 0.0, 0.0, 1.772162578236357E9, 0.0, 2026-02-26 19:22:58.236
5.0, -9621.688380442665, 18967.623289540206, 19021.647455888684, 4978.873429164103, 20281.481180367613, 2166.509886564003, 10135.756151170273, 20187.60385365532, 0.02, -0.02, 1.01, 192.0, 0.0, 160.0, 255.0, 96.0, 31.0, 144.0, 0.0, 0.0, 0.0, 1.7721625782403872E9, 0.0, 2026-02-26 19:22:58.240
6.0, -9632.28310731448, 18969.65729828564, 19022.63093264472, 4977.957007641436, 20282.174084445727, 2165.705223763612, 10135.33146802562, 20188.18499901116, 0.02, -0.02, 1.01, 192.0, 0.0, 0.0, 0.0, 0.0, 0.0, 0.0, 0.0, 0.0, 0.0, 1.77216257824541E9, 0.0, 2026-02-26 19:22:58.245
7.0, -9619.564964719411, 18965.65633602814, 19019.456984932065, 4977.286455307777, 20278.709564055152, 2165.861685974799, 10134.884433136516, 20185.391030954248, 0.02, -0.02, 1.01, 192.0, 0.0, 0.0, 0.0, 0.0, 0.0, 0.0, 0.0, 0.0, 0.0, 1.772162578249508E9, 0.0, 2026-02-26 19:22:58.249
8.0, -9621.978953120584, 18965.0751906723, 19017.62414188673, 4977.599379730151, 20277.30140415447, 2166.442831330637, 10134.638563947507, 20183.982871053562, 0.02, -0.02, 1.01, 192.0, 0.0, 0.0, 0.0, 0.0, 0.0, 0.0, 0.0, 0.0, 0.0, 1.7721625782534976E9, 0.0, 2026-02-26 19:22:58.253
9.0, -9625.085845599871, 18964.292879616365, 19016.61831338624, 4978.2252285749, 20276.541444842987, 2167.2027906421176, 10134.884433136516, 20182.932339064162, 0.02, -0.02, 1.01, 192.0, 0.0, 0.0, 0.0, 0.0, 0.0, 0.0, 0.0, 0.0, 0.0, 1.7721625782564948E9, 0.0, 2026-02-26 19:22:58.256
10.0, -9634.205357337638, 18964.315231360823, 19016.10422326377, 4980.8403826761705, 20276.29557565398, 2170.5779040548687, 10134.929136625426, 20182.53000766397, 0.02, -0.02, 1.01, 192.0, 0.0, 0.0, 0.0, 0.0, 0.0, 0.0, 0.0, 0.0, 0.0, 1.7721625782604904E9, 0.0, 2026-02-26 19:22:58.260
11.0, -9631.746665447554, 18963.1752923936, 19015.61248488575, 4983.522592010808, 20275.848540764873, 2174.578866312369, 10134.884433136516, 20181.85945533031, 0.02, -0.02, 1.01, 192.0, 0.0, 0.0, 0.0, 0.0, 0.0, 0.0, 0.0, 0.0, 0.0, 1.7721625782645392E9, 0.0, 2026-02-26 19:22:58.264
12.0, -9626.873985156297, 18962.124760404204, 19014.293731962887, 4983.276722821799, 20274.306270397457, 2174.087127934352, 10134.392694758499, 20180.42894368517, 0.02, -0.02, 1.01, 192.0, 0.0, 0.0, 0.0, 0.0, 0.0, 0.0, 0.0, 0.0, 0.0, 1.7721625782685463E9, 0.0, 2026-02-26 19:22:58.268
13.0, -9621.353104275835, 18959.308440602832, 19011.52211565043, 4982.852039677148, 20271.31113664045, 2173.2377616450503, 10134.571508714142, 20177.836141328353, 0.02, -0.02, 1.01, 192.0, 0.0, 0.0, 0.0, 0.0, 0.0, 0.0, 0.0, 0.0, 0.0, 1.7721625782735472E9, 0.0, 2026-02-26 19:22:58.273
14.0, -9627.700999701143, 18957.94498419106, 19009.443403416088, 4980.728623953894, 20269.07596219492, 2170.421441843682, 10134.705619180873, 20176.025650027474, 0.02, -0.02, 1.01, 192.0, 0.0, 0.0, 0.0, 0.0, 0.0, 0.0, 0.0, 0.0, 0.0, 1.7721625782775662E9, 0.0, 2026-02-26 19:22:58.277
15.0, -9614.401711750235, 18955.352181834245, 19007.901133048672, 4979.7227954534055, 20267.310174382947, 2169.728537765567, 10134.549156969686, 20174.550434893423, 0.02, -0.02, 1.01, 192.0, 0.0, 0.0, 0.0, 0.0, 0.0, 0.0, 0.0, 0.0, 0.0, 1.7721625782826042E9, 0.0, 2026-02-26 19:22:58.282
16.0, -9604.365778489802, 18953.74285623346, 19007.409394670653, 4980.952141398447, 20266.863139493842, 2171.00258719952, 10135.197357558889, 20174.148103493226, 0.018000000000000002, -0.026000000000000002, 1.01, 192.0, 0.0, 144.0, 255.0, 48.0, 31.0, 144.0, 0.0, 0.0, 0.0, 1.772162578286616E9, 0.0, 2026-02-26 19:22:58.286
17.0, -9597.704958642122, 18954.56987077831, 19009.33164469381, 4981.399176287553, 20268.5842238169, 2171.38256685526, 10135.085598836613, 20175.89153956074, 0.018000000000000002, -0.026000000000000002, 1.01, 192.0, 0.0, 0.0, 0.0, 0.0, 0.0, 0.0, 0.0, 0.0, 0.0, 1.7721625782896292E9, 0.0, 2026-02-26 19:22:58.289
18.0, -9595.559191174412, 18955.530995789886, 19009.778679582916, 4981.622693732106, 20269.07596219492, 2172.120174422285, 10135.107950581069, 20176.115057005296, 0.018000000000000002, -0.026000000000000002, 1.01, 192.0, 0.0, 0.0, 0.0, 0.0, 0.0, 0.0, 0.0, 0.0, 0.0, 1.7721625782926588E9, 0.0, 2026-02-26 19:22:58.292
19.0, -9593.994569062539, 18956.51447254592, 19011.119784250233, 4983.74610945536, 20270.752343029064, 2175.249418646028, 10135.130302325524, 20177.277347716972, 0.018000000000000002, -0.026000000000000002, 1.01, 192.0, 0.0, 0.0, 0.0, 0.0, 0.0, 0.0, 0.0, 0.0, 0.0, 1.772162578296666E9, 0.0, 2026-02-26 19:22:58.296
20.0, -9589.010130049006, 18959.576661536295, 19014.964284296548, 4984.953103655947, 20274.172159930728, 2176.2999506354276, 10134.973840114337, 20180.27248147398, 0.018000000000000002, -0.026000000000000002, 1.01, 192.0, 0.0, 0.0, 0.0, 0.0, 0.0, 0.0, 0.0, 0.0, 0.0, 1.7721625783006907E9, 0.0, 2026-02-26 19:22:58.300
21.0, -9587.691377126142, 18960.56013829233, 19017.221810486535, 4985.131917611589, 20276.139113442794, 2175.8752674907764, 10134.124473825035, 20181.926510563673, 0.018000000000000002, -0.026000000000000002, 1.01, 192.0, 0.0, 0.0, 0.0, 0.0, 0.0, 0.0, 0.0, 0.0, 0.0, 1.7721625783057144E9, 0.0, 2026-02-26 19:22:58.305
22.0, -9596.363853974803, 18963.287051115876, 19019.52404016543, 4984.059033877735, 20278.128418699314, 2173.57303781188, 10134.750322669785, 20184.027574542473, 0.018000000000000002, -0.026000000000000002, 1.01, 192.0, 0.0, 0.0, 0.0, 0.0, 0.0, 0.0, 0.0, 0.0, 0.0, 1.7721625783097916E9, 0.0, 2026-02-26 19:22:58.309
23.0, -9596.5650196749, 18967.08684767328, 19023.1897262561, 4982.807336188238, 20281.369421645337, 2173.3942238562377, 10134.549156969686, 20187.134467021762, 0.018000000000000002, -0.026000000000000002, 1.01, 192.0, 0.0, 0.0, 0.0, 0.0, 0.0, 0.0, 0.0, 0.0, 0.0, 1.772162578312745E9, 0.0, 2026-02-26 19:22:58.312
24.0, -9594.285141740458, 18970.28314713039, 19026.90011583568, 4982.047376876757, 20285.459790880657, 2174.28829363445, 10135.063247092157, 20190.822504856886, 0.018000000000000002, -0.026000000000000002, 1.01, 192.0, 0.0, 0.0, 0.0, 0.0, 0.0, 0.0, 0.0, 0.0, 0.0, 1.7721625783168244E9, 0.0, 2026-02-26 19:22:58.316
25.0, -9592.228781250571, 18972.987708209483, 19030.38698797071, 4978.7840221862825, 20288.83490429341, 2170.153220910218, 10133.632735447018, 20193.884693847263, 0.018000000000000002, -0.026000000000000002, 1.01, 192.0, 0.0, 0.0, 0.0, 0.0, 0.0, 0.0, 0.0, 0.0, 0.0, 1.7721625783207867E9, 0.0, 2026-02-26 19:22:58.320
26.0, -9611.674798926688, 18976.2287111555, 19033.04684556089, 4978.247580319355, 20291.181837461216, 2169.3932615987374, 10106.922400822927, 20200.210237528114, 0.02, -0.02, 1.016, 192.0, 0.0, 160.0, 255.0, 96.0, 31.0, 192.0, 0.0, 0.0, 0.0, 1.772162578324787E9, 0.0, 2026-02-26 19:22:58.324
27.0, -9626.628115967289, 18971.445437842063, 19026.72130188004, 4982.382653043586, 20285.05745948046, 2173.9753692120757, 10077.351042908555, 20198.846781116343, 0.02, -0.02, 1.016, 192.0, 0.0, 0.0, 0.0, 0.0, 0.0, 0.0, 0.0, 0.0, 0.0, 1.772162578328837E9, 0.0, 2026-02-26 19:22:58.328
28.0, -9616.815700151408, 18965.94690870606, 19021.13336576621, 4982.628522232595, 20279.313061155448, 2174.66827329019, 10075.674662074407, 20193.303548491425, 0.02, -0.02, 1.016, 192.0, 0.0, 0.0, 0.0, 0.0, 0.0, 0.0, 0.0, 0.0, 0.0, 1.7721625783328352E9, 0.0, 2026-02-26 19:22:58.332
29.0, -9616.972162362596, 18960.962469692528, 19016.461851175052, 4981.309769309732, 20274.86506400884, 2173.327168622872, 10075.674662074407, 20188.743792622543, 0.02, -0.02, 1.016, 192.0, 0.0, 0.0, 0.0, 0.0, 0.0, 0.0, 0.0, 0.0, 0.0, 1.7721625783378963E9, 0.0, 2026-02-26 19:22:58.337
30.0, -9616.726293173588, 18954.56987077831, 19009.62221737173, 4980.08042336469, 20268.472465094623, 2171.8743052332766, 10075.585255096586, 20181.70299311912, 0.02, -0.02, 1.016, 192.0, 0.0, 0.0, 0.0, 0.0, 0.0, 0.0, 0.0, 0.0, 0.0, 1.7721625783408916E9, 0.0, 2026-02-26 19:22:58.340
31.0, -9615.80987165092, 18946.009152651925, 19001.2850166899, 4984.08138562219, 20260.179967901706, 2176.2328954020613, 10075.540551607675, 20172.67288835918, 0.02, -0.02, 1.016, 192.0, 0.0, 0.0, 0.0, 0.0, 0.0, 0.0, 0.0, 0.0, 0.0, 1.7721625783448985E9, 0.0, 2026-02-26 19:22:58.344
32.0, -9607.204450035626, 18938.722483959496, 18994.266568930932, 4985.4224902895085, 20253.4297410762, 2177.506944836014, 10075.56290335213, 20165.02859175546, 0.02, -0.02, 1.016, 192.0, 0.0, 0.0, 0.0, 0.0, 0.0, 0.0, 0.0, 0.0, 0.0, 1.772162578348906E9, 0.0, 2026-02-26 19:22:58.348
33.0, -9594.218086507093, 18930.452338511033, 18986.599920582765, 4983.187315843978, 20245.785444472487, 2175.249418646028, 10075.384089396488, 20156.713742818087, 0.02, -0.02, 1.016, 192.0, 0.0, 0.0, 0.0, 0.0, 0.0, 0.0, 0.0, 0.0, 0.0, 1.7721625783529253E9, 0.0, 2026-02-26 19:22:58.352
34.0, -9588.205467248616, 18922.49511748494, 18977.592167567276, 4978.918132653014, 20237.180022857192, 2169.728537765567, 10075.384089396488, 20146.92367874666, 0.02, -0.02, 1.016, 192.0, 0.0, 0.0, 0.0, 0.0, 0.0, 0.0, 0.0, 0.0, 0.0, 1.7721625783571053E9, 0.0, 2026-02-26 19:22:58.357
35.0, -9582.572827645878, 18915.253152281424, 18969.344373863267, 4979.7227954534055, 20229.13339485328, 2170.644959288235, 10074.959406251837, 20137.580649564345, 0.02, -0.02, 1.016, 192.0, 0.0, 0.0, 0.0, 0.0, 0.0, 0.0, 0.0, 0.0, 0.0, 1.7721625783610544E9, 0.0, 2026-02-26 19:22:58.361
36.0, -9574.32503394187, 18908.145297544634, 18962.728257504496, 4986.115394367623, 20222.76314768352, 2177.6857587916566, 10077.529856864197, 20130.293980871917, 0.018000000000000002, -0.022, 1.01, 192.0, 0.0, 144.0, 255.0, 80.0, 31.0, 144.0, 0.0, 0.0, 0.0, 1.7721625783659935E9, 0.0, 2026-02-26 19:22:58.365
37.0, -9544.59721381631, 18901.55153293032, 18958.3249638468, 4985.55660075624, 20217.756356925533, 2177.641055302746, 10110.699845635872, 20127.432957581637, 0.018000000000000002, -0.022, 1.01, 192.0, 0.0, 0.0, 0.0, 0.0, 0.0, 0.0, 0.0, 0.0, 0.0, 1.7721625783690176E9, 0.0, 2026-02-26 19:22:58.369
38.0, -9533.26487937747, 18902.98204457546, 18960.828359225794, 4981.108603609634, 20219.7233104376, 2171.606084299813, 10134.81737790315, 20130.89747797221, 0.018000000000000002, -0.022, 1.01, 192.0, 0.0, 0.0, 0.0, 0.0, 0.0, 0.0, 0.0, 0.0, 0.0, 1.7721625783722167E9, 0.0, 2026-02-26 19:22:58.372
39.0, -9541.13269342574, 18908.033538822358, 18965.4775220725, 4980.952141398447, 20224.081900606383, 2170.443793588137, 10135.487930236808, 20134.83138499634, 0.018000000000000002, -0.022, 1.01, 192.0, 0.0, 0.0, 0.0, 0.0, 0.0, 0.0, 0.0, 0.0, 0.0, 1.7721625783770983E9, 0.0, 2026-02-26 19:22:58.377
40.0, -9543.054943448895, 18911.386300490656, 18968.2267866405, 4981.9579698989355, 20226.4735372631, 2170.957883710609, 10135.353819770076, 20137.021855952964, 0.018000000000000002, -0.022, 1.01, 192.0, 0.0, 0.0, 0.0, 0.0, 0.0, 0.0, 0.0, 0.0, 0.0, 1.7721625783810787E9, 0.0, 2026-02-26 19:22:58.381
41.0, -9540.59625155881, 18915.655483681618, 18972.585376809286, 4981.041548376268, 20231.077996620894, 2170.712014521601, 10134.750322669785, 20140.93341123264, 0.018000000000000002, -0.022, 1.01, 192.0, 0.0, 0.0, 0.0, 0.0, 0.0, 0.0, 0.0, 0.0, 0.0, 1.77216257838509E9, 0.0, 2026-02-26 19:22:58.385
42.0, -9545.580690572346, 18919.3658732612, 18975.871083244216, 4979.566333242218, 20234.318999566913, 2166.7557557530113, 10134.705619180873, 20143.9061932452, 0.018000000000000002, -0.022, 1.01, 192.0, 0.0, 0.0, 0.0, 0.0, 0.0, 0.0, 0.0, 0.0, 0.0, 1.7721625783891068E9, 0.0, 2026-02-26 19:22:58.389
43.0, -9556.577748844356, 18923.70211168553, 18979.60382456825, 4981.4885832653745, 20237.984685657586, 2168.409784842704, 10135.175005814435, 20147.348361891316, 0.018000000000000002, -0.022, 1.01, 192.0, 0.0, 0.0, 0.0, 0.0, 0.0, 0.0, 0.0, 0.0, 0.0, 1.7721625783931885E9, 0.0, 2026-02-26 19:22:58.393
44.0, -9565.27257743747, 18927.546611731843, 18983.314214147835, 4984.059033877735, 20241.04687464796, 2170.443793588137, 10135.53263372572, 20150.522309603966, 0.018000000000000002, -0.022, 1.01, 192.0, 0.0, 0.0, 0.0, 0.0, 0.0, 0.0, 0.0, 0.0, 0.0, 1.7721625783972125E9, 0.0, 2026-02-26 19:22:58.397
45.0, -9564.154990214705, 18931.32405654479, 18987.359879894244, 4985.8918769230695, 20244.176118871703, 2171.606084299813, 10134.81737790315, 20153.539795105433, 0.018000000000000002, -0.022, 1.01, 192.0, 0.0, 0.0, 0.0, 0.0, 0.0, 0.0, 0.0, 0.0, 0.0, 1.772162578400168E9, 0.0, 2026-02-26 19:22:58.400
46.0, -9571.687528096143, 18934.676818213084, 18990.109144462247, 4988.641141491073, 20246.455996806144, 2173.617741300791, 10134.079770336124, 20155.484396873046, 0.018000000000000002, -0.018000000000000002, 1.012, 192.0, 0.0, 144.0, 255.0, 112.0, 31.0, 160.0, 0.0, 0.0, 0.0, 1.7721625784042213E9, 0.0, 2026-02-26 19:22:58.404
47.0, -9583.489249168546, 18939.393036293153, 18993.66307183064, 4990.451632791953, 20248.95939218514, 2175.38352911276, 10133.47627323583, 20157.65251608521, 0.018000000000000002, -0.018000000000000002, 1.012, 192.0, 0.0, 0.0, 0.0, 0.0, 0.0, 0.0, 0.0, 0.0, 0.0, 1.7721625784091983E9, 0.0, 2026-02-26 19:22:58.409
48.0, -9589.032481793462, 18943.84103343976, 18995.67472883162, 4992.84326944867, 20250.188738130182, 2175.249418646028, 10132.448092990888, 20158.568937607877, 0.018000000000000002, -0.018000000000000002, 1.012, 192.0, 0.0, 0.0, 0.0, 0.0, 0.0, 0.0, 0.0, 0.0, 0.0, 1.7721625784132533E9, 0.0, 2026-02-26 19:22:58.413
49.0, -9589.971255060585, 18946.99262940796, 18997.66403408814, 4993.022083404313, 20251.10515965285, 2173.4612790896035, 10132.068113335146, 20159.015972496985, 0.018000000000000002, -0.018000000000000002, 1.012, 192.0, 0.0, 0.0, 0.0, 0.0, 0.0, 0.0, 0.0, 0.0, 0.0, 1.7721625784172368E9, 0.0, 2026-02-26 19:22:58.417
50.0, -9587.13258351476, 18948.713713731016, 18999.496877133475, 4993.267952593321, 20251.44043581968, 2172.4330988446595, 10132.716313924351, 20159.7088765751, 0.018000000000000002, -0.018000000000000002, 1.012, 192.0, 0.0, 0.0, 0.0, 0.0, 0.0, 0.0, 0.0, 0.0, 0.0, 1.7721625784212823E9, 0.0, 2026-02-26 19:22:58.421
51.0, -9595.067452796395, 18951.910013188128, 19001.41912715663, 4992.999731659857, 20252.53567129799, 2171.963712211098, 10133.185700557911, 20161.027629497963, 0.018000000000000002, -0.018000000000000002, 1.012, 192.0, 0.0, 0.0, 0.0, 0.0, 0.0, 0.0, 0.0, 0.0, 0.0, 1.772162578424286E9, 0.0, 2026-02-26 19:22:58.424
52.0, -9591.692339383644, 18951.84295795476, 19001.955569023557, 4995.4584235499415, 20252.75918874254, 2176.5011163355252, 10133.029238346726, 20161.586423109344, 0.018000000000000002, -0.018000000000000002, 1.012, 192.0, 0.0, 0.0, 0.0, 0.0, 0.0, 0.0, 0.0, 0.0, 0.0, 1.7721625784283044E9, 0.0, 2026-02-26 19:22:58.428
53.0, -9580.80703983391, 18950.099521887245, 19000.458002145053, 4994.877278194103, 20251.239270119582, 2175.8082122574106, 10133.543328469197, 20160.5582428644, 0.018000000000000002, -0.018000000000000002, 1.012, 192.0, 0.0, 0.0, 0.0, 0.0, 0.0, 0.0, 0.0, 0.0, 0.0, 1.772162578432312E9, 0.0, 2026-02-26 19:22:58.432
54.0, -9577.6107403768, 18952.021771910404, 19003.14021147969, 4992.84326944867, 20254.212052132138, 2173.0365959449528, 10133.565680213653, 20163.41926615468, 0.018000000000000002, -0.018000000000000002, 1.012, 192.0, 0.0, 0.0, 0.0, 0.0, 0.0, 0.0, 0.0, 0.0, 0.0, 1.7721625784373329E9, 0.0, 2026-02-26 19:22:58.437
55.0, -9584.226856735571, 18954.54751903385, 19005.889476047694, 4986.562429256729, 20257.72127601162, 2167.0686801753855, 10133.453921491377, 20166.481455145058, 0.018000000000000002, -0.018000000000000002, 1.012, 192.0, 0.0, 0.0, 0.0, 0.0, 0.0, 0.0, 0.0, 0.0, 0.0, 1.7721625784413803E9, 0.0, 2026-02-26 19:22:58.441
56.0, -9599.783670876464, 18957.09561790176, 19007.498801648475, 4987.948237412958, 20260.269374879525, 2169.8849999767544, 10133.632735447018, 20168.33664993485, 0.018000000000000002, -0.02, 1.006, 192.0, 0.0, 144.0, 255.0, 96.0, 31.0, 112.0, 0.0, 0.0, 0.0, 1.7721625784453871E9, 0.0, 2026-02-26 19:22:58.445
57.0, -9593.256961495515, 18956.156844634635, 19005.554199880862, 4996.620714261618, 20259.19649114567, 2180.0997471928295, 10133.185700557911, 20166.95084177862, 0.018000000000000002, -0.02, 1.006, 192.0, 0.0, 0.0, 0.0, 0.0, 0.0, 0.0, 0.0, 0.0, 0.0, 1.772162578449438E9, 0.0, 2026-02-26 19:22:58.449
58.0, -9588.116060270793, 18958.36966733571, 19007.968188282037, 4995.950161927958, 20261.38696210229, 2180.055043703919, 10132.962183113359, 20168.604870868312, 0.018000000000000002, -0.02, 1.006, 192.0, 0.0, 0.0, 0.0, 0.0, 0.0, 0.0, 0.0, 0.0, 0.0, 1.7721625784525192E9, 0.0, 2026-02-26 19:22:58.452
59.0, -9590.127717271771, 18958.973164436004, 19008.683444104605, 4991.189240358977, 20262.325735369413, 2175.696453535134, 10133.00688660227, 20169.409533668702, 0.018000000000000002, -0.02, 1.006, 192.0, 0.0, 0.0, 0.0, 0.0, 0.0, 0.0, 0.0, 0.0, 0.0, 1.7721625784564908E9, 0.0, 2026-02-26 19:22:58.456
60.0, -9597.749662131031, 18957.117969646213, 19006.738842336996, 4992.6421037485725, 20261.498720824566, 2178.3563111253156, 10132.828072646627, 20168.604870868312, 0.018000000000000002, -0.02, 1.006, 192.0, 0.0, 0.0, 0.0, 0.0, 0.0, 0.0, 0.0, 0.0, 0.0, 1.7721625784605E9, 0.0, 2026-02-26 19:22:58.460
61.0, -9607.763243647008, 18956.693286501562, 19006.56002838135, 4989.870487436115, 20261.699886524664, 2177.261075647006, 10133.185700557911, 20168.89544354623, 0.018000000000000002, -0.02, 1.006, 192.0, 0.0, 0.0, 0.0, 0.0, 0.0, 0.0, 0.0, 0.0, 0.0, 1.7721625784645483E9, 0.0, 2026-02-26 19:22:58.464
62.0, -9608.500851214034, 18955.1733678786, 19005.643606858685, 4985.489545522874, 20261.588127802388, 2173.9083139787094, 10133.364514513554, 20168.716629590588, 0.018000000000000002, -0.02, 1.006, 192.0, 0.0, 0.0, 0.0, 0.0, 0.0, 0.0, 0.0, 0.0, 0.0, 1.772162578469525E9, 0.0, 2026-02-26 19:22:58.469
63.0, -9631.612554980822, 18956.961507435026, 19005.084813247304, 4984.193144344466, 20261.543424313477, 2173.2377616450503, 10133.789197658205, 20168.448408657125, 0.018000000000000002, -0.02, 1.006, 192.0, 0.0, 0.0, 0.0, 0.0, 0.0, 0.0, 0.0, 0.0, 0.0, 1.7721625784735906E9, 0.0, 2026-02-26 19:22:58.473
64.0, -9645.805912709942, 18954.56987077831, 19000.793278311885, 4984.617827489117, 20257.92244171172, 2175.5623430684022, 10133.900956380481, 20165.252109200013, 0.018000000000000002, -0.02, 1.006, 192.0, 0.0, 0.0, 0.0, 0.0, 0.0, 0.0, 0.0, 0.0, 0.0, 1.7721625784766183E9, 0.0, 2026-02-26 19:22:58.476
65.0, -9634.071246870906, 18946.076207885293, 18994.22186544202, 4983.142612355067, 20251.932174197696, 2175.6517500462237, 10133.878604636027, 20159.88769053074, 0.018000000000000002, -0.02, 1.006, 192.0, 0.0, 0.0, 0.0, 0.0, 0.0, 0.0, 0.0, 0.0, 0.0, 1.7721625784805737E9, 0.0, 2026-02-26 19:22:58.480
66.0, -9619.676723441687, 18938.029579881382, 18988.253949672457, 4980.259237320332, 20246.38894157278, 2173.327168622872, 10133.118645324546, 20154.903251517208, 0.02, -0.018000000000000002, 1.008, 192.0, 0.0, 160.0, 255.0, 112.0, 31.0, 128.0, 0.0, 0.0, 0.0, 1.7721625784846444E9, 0.0, 2026-02-26 19:22:58.484
67.0, -9607.964409347107, 18932.061664111814, 18983.917711248127, 4977.800545430248, 20242.29857233746, 2170.421441843682, 10133.364514513554, 20151.349324148814, 0.02, -0.018000000000000002, 1.008, 192.0, 0.0, 0.0, 0.0, 0.0, 0.0, 0.0, 0.0, 0.0, 0.0, 1.7721625784887164E9, 0.0, 2026-02-26 19:22:58.488
68.0, -9604.94692384564, 18926.920762887094, 18979.51441759043, 4975.520667495807, 20238.342313568868, 2168.543895309436, 10133.76684591375, 20147.482472358046, 0.02, -0.018000000000000002, 1.008, 192.0, 0.0, 0.0, 0.0, 0.0, 0.0, 0.0, 0.0, 0.0, 0.0, 1.7721625784926183E9, 0.0, 2026-02-26 19:22:58.492
69.0, -9604.477537212078, 18921.46693724, 18974.731144276993, 4973.352548283643, 20233.49198502207, 2167.0463284309303, 10133.118645324546, 20142.945068233617, 0.02, -0.018000000000000002, 1.008, 192.0, 0.0, 0.0, 0.0, 0.0, 0.0, 0.0, 0.0, 0.0, 0.0, 1.7721625784968104E9, 0.0, 2026-02-26 19:22:58.496
70.0, -9596.296798741436, 18918.114175571704, 18972.071286686813, 4971.2738360492995, 20230.787423942977, 2165.347595852327, 10132.76101741326, 20140.441672854624, 0.02, -0.018000000000000002, 1.008, 192.0, 0.0, 0.0, 0.0, 0.0, 0.0, 0.0, 0.0, 0.0, 0.0, 1.7721625785016747E9, 0.0, 2026-02-26 19:22:58.501
71.0, -9600.85655461032, 18915.94605635954, 18969.36672560772, 4970.64798720455, 20228.127566352792, 2164.230008629562, 10132.470444735342, 20138.094739686818, 0.02, -0.018000000000000002, 1.008, 192.0, 0.0, 0.0, 0.0, 0.0, 0.0, 0.0, 0.0, 0.0, 0.0, 1.7721625785047352E9, 0.0, 2026-02-26 19:22:58.504
72.0, -9603.248191267037, 18911.22983827947, 18964.337583105276, 4974.336025039676, 20223.254886061535, 2168.0074534425084, 10132.179872057422, 20133.42322509566, 0.02, -0.018000000000000002, 1.008, 192.0, 0.0, 0.0, 0.0, 0.0, 0.0, 0.0, 0.0, 0.0, 0.0, 1.7721625785087266E9, 0.0, 2026-02-26 19:22:58.508
73.0, -9604.410481978714, 18906.848896366228, 18958.861405713727, 4978.26993206381, 20218.315150536913, 2173.349520367327, 10132.559851713164, 20128.617600037767, 0.02, -0.018000000000000002, 1.008, 192.0, 0.0, 0.0, 0.0, 0.0, 0.0, 0.0, 0.0, 0.0, 0.0, 1.7721625785127704E9, 0.0, 2026-02-26 19:22:58.512
74.0, -9595.335673729858, 18903.138506786647, 18955.41923706761, 4975.408908773531, 20214.984740613072, 2170.443793588137, 10132.738665668807, 20125.37659709175, 0.02, -0.018000000000000002, 1.008, 192.0, 0.0, 0.0, 0.0, 0.0, 0.0, 0.0, 0.0, 0.0, 0.0, 1.7721625785167544E9, 0.0, 2026-02-26 19:22:58.516
75.0, -9596.877944097274, 18899.472820695977, 18950.792425965363, 4974.626597717595, 20210.693205677653, 2168.543895309436, 10131.95635461287, 20121.04035866742, 0.02, -0.018000000000000002, 1.008, 192.0, 0.0, 0.0, 0.0, 0.0, 0.0, 0.0, 0.0, 0.0, 0.0, 1.7721625785207753E9, 0.0, 2026-02-26 19:22:58.520
76.0, -9593.65929289571, 18895.78478286085, 18945.51741427391, 4975.341853540165, 20205.57465619739, 2169.057985431908, 10132.112816824058, 20115.988864420517, 0.022, -0.024, 1.012, 192.0, 0.0, 176.0, 255.0, 64.0, 31.0, 160.0, 0.0, 0.0, 0.0, 1.7721625785247867E9, 0.0, 2026-02-26 19:22:58.524
77.0, -9597.883772597763, 18890.353308958212, 18939.61655373771, 4975.632426218084, 20199.271464260994, 2169.214447643095, 10131.509319723764, 20110.110355628774, 0.022, -0.024, 1.012, 192.0, 0.0, 0.0, 0.0, 0.0, 0.0, 0.0, 0.0, 0.0, 0.0, 1.772162578528822E9, 0.0, 2026-02-26 19:22:58.528
78.0, -9588.160763759704, 18880.78676233134, 18930.69820770004, 4975.565370984718, 20190.017842056495, 2169.415613343193, 10131.889299379505, 20101.68374796912, 0.022, -0.024, 1.012, 192.0, 0.0, 0.0, 0.0, 0.0, 0.0, 0.0, 0.0, 0.0, 0.0, 1.7721625785329113E9, 0.0, 2026-02-26 19:22:58.532
79.0, -9579.264769466492, 18874.572977372765, 18923.54564947434, 4977.107641352134, 20182.932339064162, 2170.8908284772433, 10132.112816824058, 20094.97822463253, 0.022, -0.024, 1.012, 192.0, 0.0, 0.0, 0.0, 0.0, 0.0, 0.0, 0.0, 0.0, 0.0, 1.7721625785358403E9, 0.0, 2026-02-26 19:22:58.535
80.0, -9569.050022250418, 18868.985041258937, 18916.59425694874, 4976.370033785109, 20175.89153956074, 2170.1308691657628, 10132.179872057422, 20088.272701295937, 0.022, -0.024, 1.012, 192.0, 0.0, 0.0, 0.0, 0.0, 0.0, 0.0, 0.0, 0.0, 0.0, 1.7721625785408647E9, 0.0, 2026-02-26 19:22:58.540
81.0, -9553.292042409426, 18860.044343476813, 18906.69243415504, 4979.096946608656, 20165.676792344668, 2173.349520367327, 10131.844595890594, 20078.48263722451, 0.022, -0.024, 1.012, 192.0, 0.0, 0.0, 0.0, 0.0, 0.0, 0.0, 0.0, 0.0, 0.0, 1.7721625785448775E9, 0.0, 2026-02-26 19:22:58.544
82.0, -9543.211405660082, 18850.746017783407, 18898.243474750936, 4980.885086165081, 20157.071370729373, 2175.4729360905812, 10131.57637495713, 20070.368953987236, 0.022, -0.024, 1.012, 192.0, 0.0, 0.0, 0.0, 0.0, 0.0, 0.0, 0.0, 0.0, 0.0, 1.7721625785489228E9, 0.0, 2026-02-26 19:22:58.548
83.0, -9543.993716716019, 18840.330104867233, 18890.979157802958, 4981.198010587455, 20149.739998548033, 2175.5176395794915, 10132.023409846237, 20063.663430650646, 0.022, -0.024, 1.012, 192.0, 0.0, 0.0, 0.0, 0.0, 0.0, 0.0, 0.0, 0.0, 0.0, 1.7721625785529292E9, 0.0, 2026-02-26 19:22:58.552
84.0, -9531.208518887583, 18833.35636059718, 18884.631262377654, 4981.399176287553, 20143.481510100548, 2176.0317297019637, 10132.224575546334, 20057.516700925436, 0.022, -0.024, 1.012, 192.0, 0.0, 0.0, 0.0, 0.0, 0.0, 0.0, 0.0, 0.0, 0.0, 1.7721625785569437E9, 0.0, 2026-02-26 19:22:58.556
85.0, -9528.414550830668, 18828.416625072554, 18879.31154719729, 4980.393347787064, 20138.31825713137, 2175.0035494570197, 10132.224575546334, 20052.509910167446, 0.022, -0.024, 1.012, 192.0, 0.0, 0.0, 0.0, 0.0, 0.0, 0.0, 0.0, 0.0, 0.0, 1.772162578561005E9, 0.0, 2026-02-26 19:22:58.561
86.0, -9510.26493433296, 18822.58281976972, 18874.662384350584, 4980.527458253796, 20134.071425684862, 2175.4952878350364, 10132.381037757521, 20048.039561276386, 0.018000000000000002, -0.026000000000000002, 1.014, 192.0, 0.0, 144.0, 255.0, 48.0, 31.0, 176.0, 0.0, 0.0, 0.0, 1.7721625785640385E9, 0.0, 2026-02-26 19:22:58.564
87.0, -9502.330065051327, 18818.470098789945, 18870.48260813744, 4981.9579698989355, 20130.450443083104, 2177.596351813835, 10132.001058101781, 20043.859785063243, 0.018000000000000002, -0.026000000000000002, 1.014, 192.0, 0.0, 0.0, 0.0, 0.0, 0.0, 0.0, 0.0, 0.0, 0.0, 1.7721625785680237E9, 0.0, 2026-02-26 19:22:58.568
88.0, -9502.039492373407, 18814.133860365615, 18865.654631335095, 4983.03085363279, 20126.02479768095, 2178.7586425255113, 10131.509319723764, 20039.322380938815, 0.018000000000000002, -0.026000000000000002, 1.014, 192.0, 0.0, 0.0, 0.0, 0.0, 0.0, 0.0, 0.0, 0.0, 0.0, 1.7721625785731084E9, 0.0, 2026-02-26 19:22:58.573
89.0, -9502.710044707066, 18808.61297948515, 18859.664363821073, 4979.7227954534055, 20119.74395748901, 2174.1094796788075, 10131.15169181248, 20033.220354702516, 0.018000000000000002, -0.026000000000000002, 1.014, 192.0, 0.0, 0.0, 0.0, 0.0, 0.0, 0.0, 0.0, 0.0, 0.0, 1.7721625785770388E9, 0.0, 2026-02-26 19:22:58.577
90.0, -9493.568181224846, 18802.510953248853, 18853.785855029328, 4979.879257664592, 20113.68663474162, 2174.444755845637, 10130.90582262347, 20027.230087188495, 0.018000000000000002, -0.026000000000000002, 1.014, 192.0, 0.0, 0.0, 0.0, 0.0, 0.0, 0.0, 0.0, 0.0, 0.0, 1.7721625785810664E9, 0.0, 2026-02-26 19:22:58.581
91.0, -9484.582779953811, 18796.610092712654, 18847.996753215404, 4981.108603609634, 20107.919884672152, 2175.919970979687, 10131.017581345748, 20021.39628188566, 0.018000000000000002, -0.026000000000000002, 1.014, 192.0, 0.0, 0.0, 0.0, 0.0, 0.0, 0.0, 0.0, 0.0, 0.0, 1.7721625785850983E9, 0.0, 2026-02-26 19:22:58.585
92.0, -9481.945274108086, 18794.06199384475, 18844.889860736115, 4976.682958207483, 20104.477716026035, 2169.8402964878437, 10130.391732500999, 20018.021168472907, 0.018000000000000002, -0.026000000000000002, 1.014, 192.0, 0.0, 0.0, 0.0, 0.0, 0.0, 0.0, 0.0, 0.0, 0.0, 1.7721625785881135E9, 0.0, 2026-02-26 19:22:58.588
93.0, -9479.6877479181, 18787.691746674987, 18838.45255833299, 4975.36420528462, 20097.54867524489, 2168.7227092650783, 10130.302325523178, 20011.203886414038, 0.018000000000000002, -0.026000000000000002, 1.014, 192.0, 0.0, 0.0, 0.0, 0.0, 0.0, 0.0, 0.0, 0.0, 0.0, 1.772162578592157E9, 0.0, 2026-02-26 19:22:58.592
94.0, -9476.111468805251, 18784.026060584314, 18834.742168753408, 4976.101812851645, 20093.592416476302, 2168.85681973181, 10130.279973778723, 20007.269979389905, 0.018000000000000002, -0.026000000000000002, 1.014, 192.0, 0.0, 0.0, 0.0, 0.0, 0.0, 0.0, 0.0, 0.0, 0.0, 1.772162578596182E9, 0.0, 2026-02-26 19:22:58.596
95.0, -9461.135800020194, 18780.069801815727, 18831.612924529665, 4975.0289291177905, 20090.21730306355, 2167.9627499535977, 10130.43643598991, 20003.894865977152, 0.018000000000000002, -0.026000000000000002, 1.014, 192.0, 0.0, 0.0, 0.0, 0.0, 0.0, 0.0, 0.0, 0.0, 0.0, 1.7721625786001413E9, 0.0, 2026-02-26 19:22:58.600
96.0, -9455.480808673003, 18777.275833758813, 18828.796604728297, 4974.291321550765, 20087.60214896228, 2166.822810986377, 10130.995229601293, 20001.05619443133, 0.018000000000000002, -0.026000000000000002, 1.014, 192.0, 0.0, 0.0, 0.0, 0.0, 0.0, 0.0, 0.0, 0.0, 0.0, 1.7721625786052203E9, 0.0, 2026-02-26 19:22:58.605
97.0, -9446.67422135761, 18772.76078137884, 18824.594476770697, 4973.598417472651, 20083.86940763824, 2166.3757760972712, 10130.928174367926, 19997.211694385016, 0.014, -0.02, 1.014, 192.0, 0.0, 112.0, 255.0, 96.0, 31.0, 176.0, 0.0, 0.0, 0.0, 1.7721625786092243E9, 0.0, 2026-02-26 19:22:58.609
98.0, -9439.096979987262, 18768.916281332527, 18820.325293579735, 4974.112507595123, 20080.002555847474, 2166.889866219743, 10131.017581345748, 19993.277787360883, 0.014, -0.02, 1.014, 192.0, 0.0, 0.0, 0.0, 0.0, 0.0, 0.0, 0.0, 0.0, 0.0, 1.7721625786133564E9, 0.0, 2026-02-26 19:22:58.613
99.0, -9426.602354836745, 18765.585871408686, 18817.956008667472, 4975.990054129369, 20078.102657568772, 2170.2426278880394, 10131.218747045845, 19991.467296060004, 0.014, -0.02, 1.014, 192.0, 0.0, 0.0, 0.0, 0.0, 0.0, 0.0, 0.0, 0.0, 0.0, 1.7721625786164815E9, 0.0, 2026-02-26 19:22:58.616
100.0, -9424.367180391215, 18765.407057453045, 18818.000712156383, 4972.79375467226, 20078.08030582432, 2166.9122179641986, 10131.777540657227, 19991.489647804457, 0.014, -0.02, 1.014, 192.0, 0.0, 0.0, 0.0, 0.0, 0.0, 0.0, 0.0, 0.0, 0.0, 1.7721625786203225E9, 0.0, 2026-02-26 19:22:58.620
101.0, -9420.299162900348, 18764.62474639711, 18817.2407528449, 4973.240789561366, 20077.409753490658, 2167.023976686475, 10131.19639530139, 19990.975557681984, 0.014, -0.02, 1.014, 192.0, 0.0, 0.0, 0.0, 0.0, 0.0, 0.0, 0.0, 0.0, 0.0, 1.7721625786243608E9, 0.0, 2026-02-26 19:22:58.624
102.0, -9423.897793757653, 18764.311821974734, 18817.06193888926, 4978.471097763908, 20077.54386395739, 2173.1930581561396, 10130.458787734364, 19991.33318559327, 0.014, -0.02, 1.014, 192.0, 0.0, 0.0, 0.0, 0.0, 0.0, 0.0, 0.0, 0.0, 0.0, 1.7721625786283553E9, 0.0, 2026-02-26 19:22:58.628
103.0, -9408.653904039134, 18762.926013818505, 18816.86077318916, 4978.091118108167, 20077.096829068283, 2173.8189070008884, 10130.369380756543, 19991.266130359905, 0.014, -0.02, 1.014, 192.0, 0.0, 0.0, 0.0, 0.0, 0.0, 0.0, 0.0, 0.0, 0.0, 1.7721625786323593E9, 0.0, 2026-02-26 19:22:58.632
104.0, -9408.609200550223, 18763.015420796328, 18817.128994122624, 4971.229132560388, 20077.029773834918, 2166.509886564003, 10130.637601690007, 19991.087316404264, 0.014, -0.02, 1.014, 192.0, 0.0, 0.0, 0.0, 0.0, 0.0, 0.0, 0.0, 0.0, 0.0, 1.7721625786374376E9, 0.0, 2026-02-26 19:22:58.637
105.0, -9402.99891269194, 18765.183540008493, 18819.744148223897, 4966.356452269131, 20079.466113980547, 2161.1231161502737, 10130.347029012088, 19993.5683600388, 0.014, -0.02, 1.014, 192.0, 0.0, 0.0, 0.0, 0.0, 0.0, 0.0, 0.0, 0.0, 0.0, 1.7721625786414E9, 0.0, 2026-02-26 19:22:58.641
106.0, -9394.52760154338, 18767.172845265013, 18822.15813662507, 4969.038661603769, 20082.03656459291, 2164.542933051936, 10130.168215056447, 19996.00470018443, 0.014, -0.02, 1.014, 192.0, 0.0, 0.0, 0.0, 0.0, 0.0, 0.0, 0.0, 0.0, 0.0, 1.7721625786444068E9, 0.0, 2026-02-26 19:22:58.644
107.0, -9382.278845581872, 18769.00568831035, 18825.622657015643, 4974.917170395514, 20085.814009405854, 2172.2989883779273, 10130.548194712186, 19999.648034530645, 0.016, -0.022, 1.016, 192.0, 0.0, 128.0, 255.0, 80.0, 31.0, 192.0, 0.0, 0.0, 0.0, 1.7721625786484687E9, 0.0, 2026-02-26 19:22:58.648
108.0, -9381.563589759302, 18774.10188604616, 18831.67997976303, 4978.4934495083635, 20092.27366355344, 2177.1046134358185, 10130.659953434462, 20005.95122646704, 0.016, -0.022, 1.016, 192.0, 0.0, 0.0, 0.0, 0.0, 0.0, 0.0, 0.0, 0.0, 0.0, 1.772162578652392E9, 0.0, 2026-02-26 19:22:58.652
109.0, -9385.765717716899, 18779.734525648895, 18836.954991454484, 4979.119298353112, 20097.951006645086, 2177.4175378581926, 10131.129340068024, 20011.53916258087, 0.016, -0.022, 1.016, 192.0, 0.0, 0.0, 0.0, 0.0, 0.0, 0.0, 0.0, 0.0, 0.0, 1.7721625786564493E9, 0.0, 2026-02-26 19:22:58.656
110.0, -9394.706415499022, 18785.322461762724, 18842.498224079398, 4980.326292553698, 20103.78481194792, 2178.6245320587796, 10131.174043556935, 20017.19415392806, 0.016, -0.022, 1.016, 192.0, 0.0, 0.0, 0.0, 0.0, 0.0, 0.0, 0.0, 0.0, 0.0, 1.7721625786605003E9, 0.0, 2026-02-26 19:22:58.660
111.0, -9399.601447534735, 18790.731583920908, 18848.28732589332, 4983.410833288531, 20109.73037597303, 2182.7819565274667, 10131.688133679407, 20023.095014464263, 0.016, -0.022, 1.016, 192.0, 0.0, 0.0, 0.0, 0.0, 0.0, 0.0, 0.0, 0.0, 0.0, 1.7721625786655147E9, 0.0, 2026-02-26 19:22:58.665
112.0, -9410.084415684274, 18795.894836890082, 18853.607041073687, 4986.853001934648, 20115.340663831314, 2187.542878096447, 10130.950526112381, 20028.794709300364, 0.016, -0.022, 1.016, 192.0, 0.0, 0.0, 0.0, 0.0, 0.0, 0.0, 0.0, 0.0, 0.0, 1.7721625786695204E9, 0.0, 2026-02-26 19:22:58.669
113.0, -9423.33900014627, 18797.682976446507, 18854.568166085264, 4985.623655989606, 20116.435899309625, 2185.710035051112, 10130.950526112381, 20029.912296523133, 0.016, -0.022, 1.016, 192.0, 0.0, 0.0, 0.0, 0.0, 0.0, 0.0, 0.0, 0.0, 0.0, 1.772162578672557E9, 0.0, 2026-02-26 19:22:58.672
114.0, -9452.910358060642, 18803.360319538155, 18857.92092775356, 4979.789850686771, 20119.565143533368, 2177.931627980665, 10130.704656923373, 20032.63920934668, 0.016, -0.022, 1.016, 192.0, 0.0, 0.0, 0.0, 0.0, 0.0, 0.0, 0.0, 0.0, 0.0, 1.7721625786766143E9, 0.0, 2026-02-26 19:22:58.676
115.0, -9460.06291628634, 18806.042528872793, 18860.02199173236, 4983.567295499718, 20121.979131934542, 2182.401976871726, 10131.017581345748, 20034.71792158102, 0.016, -0.022, 1.016, 192.0, 0.0, 0.0, 0.0, 0.0, 0.0, 0.0, 0.0, 0.0, 0.0, 1.7721625786805553E9, 0.0, 2026-02-26 19:22:58.680
116.0, -9448.618823125224, 18807.987130640406, 18863.48651212293, 4991.569220014718, 20125.84598372531, 2191.3873781427596, 10130.90582262347, 20038.428311160602, 0.016, -0.022, 1.016, 192.0, 0.0, 0.0, 0.0, 0.0, 0.0, 0.0, 0.0, 0.0, 0.0, 1.7721625786845648E9, 0.0, 2026-02-26 19:22:58.684
117.0, -9432.838491539776, 18811.451651030977, 18868.538006369832, 4992.776214215304, 20130.94218146112, 2193.3319799103715, 10130.52584296773, 20043.457453663046, 0.018000000000000002, -0.024, 1.006, 192.0, 0.0, 144.0, 255.0, 64.0, 31.0, 112.0, 0.0, 0.0, 0.0, 1.7721625786886744E9, 0.0, 2026-02-26 19:22:58.688
118.0, -9435.923032274608, 18814.424433043532, 18870.862587793185, 4991.099833381157, 20133.378521606748, 2191.1638606982065, 10129.967049356348, 20045.64792461967, 0.018000000000000002, -0.024, 1.006, 192.0, 0.0, 0.0, 0.0, 0.0, 0.0, 0.0, 0.0, 0.0, 0.0, 1.772162578692672E9, 0.0, 2026-02-26 19:22:58.692
119.0, -9441.622727110711, 18817.66543598955, 18874.125942483657, 4992.955028170947, 20136.820690252865, 2192.0355787319636, 10130.01175284526, 20049.134796754694, 0.018000000000000002, -0.024, 1.006, 192.0, 0.0, 0.0, 0.0, 0.0, 0.0, 0.0, 0.0, 0.0, 0.0, 1.7721625786977055E9, 0.0, 2026-02-26 19:22:58.697
120.0, -9442.025058510908, 18821.129956380126, 18878.12690474116, 4991.725682225905, 20140.396969365713, 2190.985046742564, 10130.43643598991, 20052.845186334274, 0.018000000000000002, -0.024, 1.006, 192.0, 0.0, 0.0, 0.0, 0.0, 0.0, 0.0, 0.0, 0.0, 0.0, 1.7721625787006536E9, 0.0, 2026-02-26 19:22:58.700
121.0, -9441.466264899524, 18825.06386340426, 18882.284329209844, 4988.7081967244385, 20144.353228134303, 2188.1910786856506, 10129.877642378528, 20056.68968638059, 0.018000000000000002, -0.024, 1.006, 192.0, 0.0, 0.0, 0.0, 0.0, 0.0, 0.0, 0.0, 0.0, 0.0, 1.7721625787046385E9, 0.0, 2026-02-26 19:22:58.704
122.0, -9438.091151486773, 18828.997770428392, 18886.97819554546, 4989.669321736017, 20148.89063225873, 2189.867459519799, 10129.76588365625, 20061.11533178274, 0.018000000000000002, -0.024, 1.006, 192.0, 0.0, 0.0, 0.0, 0.0, 0.0, 0.0, 0.0, 0.0, 0.0, 1.7721625787087424E9, 0.0, 2026-02-26 19:22:58.708
123.0, -9434.805445051843, 18833.11049140817, 18891.605006647707, 4994.899629938559, 20153.98682999454, 2195.9024305227317, 10129.587069700608, 20065.898605096176, 0.018000000000000002, -0.024, 1.006, 192.0, 0.0, 0.0, 0.0, 0.0, 0.0, 0.0, 0.0, 0.0, 0.0, 1.7721625787127576E9, 0.0, 2026-02-26 19:22:58.712
124.0, -9431.162110705627, 18839.25722113338, 18898.86932359568, 4985.690711222972, 20160.17826320866, 2184.637151317257, 10129.452959233877, 20072.15709354366, 0.018000000000000002, -0.024, 1.006, 192.0, 0.0, 0.0, 0.0, 0.0, 0.0, 0.0, 0.0, 0.0, 0.0, 1.7721625787167587E9, 0.0, 2026-02-26 19:22:58.716
125.0, -9447.188311480084, 18849.58372707173, 18908.525277200377, 4983.187315843978, 20169.431885413156, 2182.5584390829135, 10129.095331322591, 20081.053087836874, 0.018000000000000002, -0.024, 1.006, 192.0, 0.0, 0.0, 0.0, 0.0, 0.0, 0.0, 0.0, 0.0, 0.0, 1.7721625787207856E9, 0.0, 2026-02-26 19:22:58.720
126.0, -9455.30199471736, 18857.071561464258, 18915.811945892805, 4980.594513487162, 20176.651498872223, 2179.473898348081, 10129.207090044867, 20087.98212861802, 0.018000000000000002, -0.024, 1.006, 192.0, 0.0, 0.0, 0.0, 0.0, 0.0, 0.0, 0.0, 0.0, 0.0, 1.7721625787258556E9, 0.0, 2026-02-26 19:22:58.725
127.0, -9471.574064680823, 18866.235776690934, 18923.724463429986, 4976.235923318377, 20184.876940831775, 2173.57303781188, 10129.117683067047, 20095.425259521635, 0.018000000000000002, -0.026000000000000002, 1.02, 192.0, 0.0, 144.0, 255.0, 48.0, 31.0, 224.0, 0.0, 0.0, 0.0, 1.7721625787289913E9, 0.0, 2026-02-26 19:22:58.728
128.0, -9486.482678232513, 18877.74692508542, 18932.732216445474, 4977.018234374313, 20194.488190947555, 2174.5565145679134, 10128.894165622492, 20104.03068113693, 0.018000000000000002, -0.026000000000000002, 1.02, 192.0, 0.0, 0.0, 0.0, 0.0, 0.0, 0.0, 0.0, 0.0, 0.0, 1.7721625787318654E9, 0.0, 2026-02-26 19:22:58.731
129.0, -9496.675073704133, 18884.854779822206, 18938.342504303757, 4979.588684986673, 20200.791382883952, 2178.2669041474946, 10129.162386555958, 20109.640968995212, 0.018000000000000002, -0.026000000000000002, 1.02, 192.0, 0.0, 0.0, 0.0, 0.0, 0.0, 0.0, 0.0, 0.0, 0.0, 1.7721625787368302E9, 0.0, 2026-02-26 19:22:58.736
130.0, -9517.238678603015, 18895.82948634976, 18947.529071274887, 4983.679054221994, 20210.6708539332, 2182.7819565274667, 10129.47531097833, 20118.55931503288, 0.018000000000000002, -0.026000000000000002, 1.02, 192.0, 0.0, 0.0, 0.0, 0.0, 0.0, 0.0, 0.0, 0.0, 0.0, 1.7721625787409132E9, 0.0, 2026-02-26 19:22:58.740
131.0, -9538.875167235752, 18905.910123099104, 18955.66510625662, 4978.716966952917, 20218.4716127481, 2175.5176395794915, 10129.989401100804, 20125.73422500303, 0.018000000000000002, -0.026000000000000002, 1.02, 192.0, 0.0, 0.0, 0.0, 0.0, 0.0, 0.0, 0.0, 0.0, 0.0, 1.7721625787449389E9, 0.0, 2026-02-26 19:22:58.744
132.0, -9575.733193842554, 18919.857611639218, 18966.88568197318, 4969.083365092679, 20228.976932642097, 2164.520581307481, 10130.279973778723, 20135.45723384109, 0.018000000000000002, -0.026000000000000002, 1.02, 192.0, 0.0, 0.0, 0.0, 0.0, 0.0, 0.0, 0.0, 0.0, 0.0, 1.7721625787489169E9, 0.0, 2026-02-26 19:22:58.748
133.0, -9632.350162547848, 18933.626286223687, 18978.218016412022, 4967.36228076962, 20240.421025803214, 2163.9841394405535, 10130.056456334169, 20145.6049258238, 0.018000000000000002, -0.026000000000000002, 1.02, 192.0, 0.0, 0.0, 0.0, 0.0, 0.0, 0.0, 0.0, 0.0, 0.0, 1.7721625787529783E9, 0.0, 2026-02-26 19:22:58.752
134.0, -9694.800936555976, 18943.28223982838, 18986.46581011603, 4968.971606370403, 20249.562889285433, 2166.0181481859863, 10130.458787734364, 20153.539795105433, 0.018000000000000002, -0.026000000000000002, 1.02, 192.0, 0.0, 0.0, 0.0, 0.0, 0.0, 0.0, 0.0, 0.0, 0.0, 1.7721625787569604E9, 0.0, 2026-02-26 19:22:58.756
135.0, -9745.718210425164, 18953.80991146683, 18997.015833498936, 4972.592588972162, 20260.82816849091, 2170.8237732438774, 10130.212918545356, 20163.55337662141, 0.018000000000000002, -0.026000000000000002, 1.02, 192.0, 0.0, 0.0, 0.0, 0.0, 0.0, 0.0, 0.0, 0.0, 0.0, 1.7721625787599344E9, 0.0, 2026-02-26 19:22:58.759
136.0, -9800.502336085121, 18962.728257504496, 19006.492973147986, 4975.095984351156, 20270.215901162137, 2173.282465133961, 10130.034104589713, 20172.18114998116, 0.018000000000000002, -0.026000000000000002, 1.02, 192.0, 0.0, 0.0, 0.0, 0.0, 0.0, 0.0, 0.0, 0.0, 0.0, 1.7721625787639296E9, 0.0, 2026-02-26 19:22:58.763
137.0, -9869.502171218655, 18972.406562853645, 19016.350092452776, 4974.403080273042, 20280.050668722473, 2172.723671522578, 10130.682305178918, 20180.85362682982, 0.02, -0.016, 1.014, 192.0, 0.0, 160.0, 255.0, 128.0, 31.0, 176.0, 0.0, 0.0, 0.0, 1.772162578768988E9, 0.0, 2026-02-26 19:22:58.768
138.0, -9926.901450979884, 18983.247158914466, 19027.123633280236, 4976.817068674215, 20291.226540950127, 2175.5176395794915, 10113.203241014868, 20194.197618269638, 0.02, -0.016, 1.014, 192.0, 0.0, 0.0, 0.0, 0.0, 0.0, 0.0, 0.0, 0.0, 0.0, 1.7721625787730317E9, 0.0, 2026-02-26 19:22:58.773
139.0, -9897.844183187985, 18986.532865349396, 19030.364636226255, 4980.6615687205285, 20294.333433429412, 2179.3397878813494, 10075.585255096586, 20203.7194614076, 0.02, -0.016, 1.014, 192.0, 0.0, 0.0, 0.0, 0.0, 0.0, 0.0, 0.0, 0.0, 0.0, 1.772162578777002E9, 0.0, 2026-02-26 19:22:58.777
140.0, -9827.391484664857, 18988.32100490582, 19032.018665315947, 4978.806373930737, 20295.696889841187, 2177.261075647006, 10070.42200212741, 20205.77582189749, 0.02, -0.016, 1.014, 192.0, 0.0, 0.0, 0.0, 0.0, 0.0, 0.0, 0.0, 0.0, 0.0, 1.772162578781035E9, 0.0, 2026-02-26 19:22:58.781
141.0, -9760.35860304339, 18989.95268225106, 19033.67269440564, 4977.50997275233, 20297.149753230784, 2175.4729360905812, 10070.220836427312, 20207.452202731634, 0.02, -0.016, 1.014, 192.0, 0.0, 0.0, 0.0, 0.0, 0.0, 0.0, 0.0, 0.0, 0.0, 1.7721625787840755E9, 0.0, 2026-02-26 19:22:58.784
